#  E (eV)   dos(E)     Int dos(E) EFermi =    0.127 eV
  -5.000  0.0000E+00  0.4800E+02
  -4.990  0.0000E+00  0.4800E+02
  -4.980  0.0000E+00  0.4800E+02
  -4.970  0.0000E+00  0.4800E+02
  -4.960  0.0000E+00  0.4800E+02
  -4.950  0.0000E+00  0.4800E+02
  -4.940  0.0000E+00  0.4800E+02
  -4.930  0.0000E+00  0.4800E+02
  -4.920  0.0000E+00  0.4800E+02
  -4.910  0.0000E+00  0.4800E+02
  -4.900  0.0000E+00  0.4800E+02
  -4.890  0.0000E+00  0.4800E+02
  -4.880  0.0000E+00  0.4800E+02
  -4.870  0.0000E+00  0.4800E+02
  -4.860  0.0000E+00  0.4800E+02
  -4.850  0.0000E+00  0.4800E+02
  -4.840  0.0000E+00  0.4800E+02
  -4.830  0.0000E+00  0.4800E+02
  -4.820  0.0000E+00  0.4800E+02
  -4.810  0.0000E+00  0.4800E+02
  -4.800  0.0000E+00  0.4800E+02
  -4.790  0.0000E+00  0.4800E+02
  -4.780  0.0000E+00  0.4800E+02
  -4.770  0.0000E+00  0.4800E+02
  -4.760  0.1133E+01  0.4800E+02
  -4.750  0.1433E+01  0.4802E+02
  -4.740  0.1318E+01  0.4804E+02
  -4.730  0.1306E+01  0.4805E+02
  -4.720  0.1375E+01  0.4806E+02
  -4.710  0.1139E+01  0.4807E+02
  -4.700  0.1130E+01  0.4809E+02
  -4.690  0.1135E+01  0.4810E+02
  -4.680  0.1148E+01  0.4811E+02
  -4.670  0.1159E+01  0.4812E+02
  -4.660  0.1045E+01  0.4813E+02
  -4.650  0.1038E+01  0.4814E+02
  -4.640  0.1048E+01  0.4815E+02
  -4.630  0.1059E+01  0.4816E+02
  -4.620  0.1072E+01  0.4817E+02
  -4.610  0.1061E+01  0.4818E+02
  -4.600  0.1040E+01  0.4819E+02
  -4.590  0.1017E+01  0.4820E+02
  -4.580  0.9956E+00  0.4821E+02
  -4.570  0.9938E+00  0.4822E+02
  -4.560  0.1004E+01  0.4823E+02
  -4.550  0.1016E+01  0.4824E+02
  -4.540  0.1024E+01  0.4825E+02
  -4.530  0.1022E+01  0.4826E+02
  -4.520  0.1001E+01  0.4827E+02
  -4.510  0.9936E+00  0.4828E+02
  -4.500  0.9866E+00  0.4829E+02
  -4.490  0.9812E+00  0.4830E+02
  -4.480  0.9700E+00  0.4831E+02
  -4.470  0.9788E+00  0.4832E+02
  -4.460  0.9885E+00  0.4833E+02
  -4.450  0.9940E+00  0.4834E+02
  -4.440  0.1005E+01  0.4835E+02
  -4.430  0.1017E+01  0.4836E+02
  -4.420  0.9879E+00  0.4837E+02
  -4.410  0.9632E+00  0.4838E+02
  -4.400  0.9786E+00  0.4839E+02
  -4.390  0.9735E+00  0.4840E+02
  -4.380  0.9732E+00  0.4841E+02
  -4.370  0.9735E+00  0.4842E+02
  -4.360  0.9725E+00  0.4843E+02
  -4.350  0.9758E+00  0.4844E+02
  -4.340  0.9850E+00  0.4845E+02
  -4.330  0.9942E+00  0.4846E+02
  -4.320  0.1004E+01  0.4847E+02
  -4.310  0.1010E+01  0.4848E+02
  -4.300  0.9877E+00  0.4849E+02
  -4.290  0.9769E+00  0.4850E+02
  -4.280  0.9700E+00  0.4851E+02
  -4.270  0.9774E+00  0.4852E+02
  -4.260  0.9787E+00  0.4853E+02
  -4.250  0.9803E+00  0.4854E+02
  -4.240  0.9793E+00  0.4855E+02
  -4.230  0.9814E+00  0.4856E+02
  -4.220  0.9828E+00  0.4857E+02
  -4.210  0.9914E+00  0.4858E+02
  -4.200  0.1000E+01  0.4859E+02
  -4.190  0.1006E+01  0.4860E+02
  -4.180  0.1015E+01  0.4861E+02
  -4.170  0.1010E+01  0.4862E+02
  -4.160  0.9987E+00  0.4863E+02
  -4.150  0.9907E+00  0.4864E+02
  -4.140  0.9847E+00  0.4865E+02
  -4.130  0.9909E+00  0.4866E+02
  -4.120  0.9946E+00  0.4867E+02
  -4.110  0.9943E+00  0.4868E+02
  -4.100  0.9962E+00  0.4869E+02
  -4.090  0.9990E+00  0.4870E+02
  -4.080  0.1002E+01  0.4871E+02
  -4.070  0.1004E+01  0.4872E+02
  -4.060  0.1010E+01  0.4873E+02
  -4.050  0.1019E+01  0.4874E+02
  -4.040  0.1027E+01  0.4875E+02
  -4.030  0.1028E+01  0.4876E+02
  -4.020  0.1027E+01  0.4877E+02
  -4.010  0.1024E+01  0.4878E+02
  -4.000  0.1016E+01  0.4879E+02
  -3.990  0.1012E+01  0.4880E+02
  -3.980  0.1009E+01  0.4881E+02
  -3.970  0.1019E+01  0.4882E+02
  -3.960  0.1022E+01  0.4883E+02
  -3.950  0.1025E+01  0.4884E+02
  -3.940  0.1027E+01  0.4885E+02
  -3.930  0.1028E+01  0.4886E+02
  -3.920  0.1030E+01  0.4887E+02
  -3.910  0.1034E+01  0.4888E+02
  -3.900  0.1040E+01  0.4889E+02
  -3.890  0.1049E+01  0.4890E+02
  -3.880  0.1053E+01  0.4891E+02
  -3.870  0.1052E+01  0.4893E+02
  -3.860  0.1055E+01  0.4894E+02
  -3.850  0.1058E+01  0.4895E+02
  -3.840  0.1053E+01  0.4896E+02
  -3.830  0.1049E+01  0.4897E+02
  -3.820  0.1048E+01  0.4898E+02
  -3.810  0.1052E+01  0.4899E+02
  -3.800  0.1058E+01  0.4900E+02
  -3.790  0.1061E+01  0.4901E+02
  -3.780  0.1064E+01  0.4902E+02
  -3.770  0.1068E+01  0.4903E+02
  -3.760  0.1072E+01  0.4904E+02
  -3.750  0.1076E+01  0.4905E+02
  -3.740  0.1080E+01  0.4906E+02
  -3.730  0.1088E+01  0.4907E+02
  -3.720  0.1091E+01  0.4908E+02
  -3.710  0.1093E+01  0.4910E+02
  -3.700  0.1097E+01  0.4911E+02
  -3.690  0.1101E+01  0.4912E+02
  -3.680  0.1105E+01  0.4913E+02
  -3.670  0.1102E+01  0.4914E+02
  -3.660  0.1098E+01  0.4915E+02
  -3.650  0.1098E+01  0.4916E+02
  -3.640  0.1104E+01  0.4917E+02
  -3.630  0.1113E+01  0.4918E+02
  -3.620  0.1117E+01  0.4919E+02
  -3.610  0.1121E+01  0.4921E+02
  -3.600  0.1125E+01  0.4922E+02
  -3.590  0.1132E+01  0.4923E+02
  -3.580  0.1136E+01  0.4924E+02
  -3.570  0.1141E+01  0.4925E+02
  -3.560  0.1153E+01  0.4926E+02
  -3.550  0.1194E+01  0.4927E+02
  -3.540  0.1224E+01  0.4929E+02
  -3.530  0.1255E+01  0.4930E+02
  -3.520  0.1288E+01  0.4931E+02
  -3.510  0.2337E+01  0.4933E+02
  -3.500  0.5263E+01  0.4936E+02
  -3.490  0.6432E+01  0.4942E+02
  -3.480  0.8747E+01  0.4949E+02
  -3.470  0.7513E+01  0.4959E+02
  -3.460  0.5220E+01  0.4965E+02
  -3.450  0.5177E+01  0.4970E+02
  -3.440  0.5111E+01  0.4975E+02
  -3.430  0.4916E+01  0.4980E+02
  -3.420  0.4822E+01  0.4985E+02
  -3.410  0.4728E+01  0.4990E+02
  -3.400  0.4672E+01  0.4995E+02
  -3.390  0.4650E+01  0.4999E+02
  -3.380  0.4504E+01  0.5004E+02
  -3.370  0.3902E+01  0.5008E+02
  -3.360  0.3918E+01  0.5012E+02
  -3.350  0.3919E+01  0.5016E+02
  -3.340  0.3872E+01  0.5020E+02
  -3.330  0.3857E+01  0.5024E+02
  -3.320  0.3886E+01  0.5028E+02
  -3.310  0.3937E+01  0.5032E+02
  -3.300  0.3965E+01  0.5036E+02
  -3.290  0.3963E+01  0.5040E+02
  -3.280  0.3997E+01  0.5044E+02
  -3.270  0.3989E+01  0.5048E+02
  -3.260  0.3999E+01  0.5052E+02
  -3.250  0.4057E+01  0.5056E+02
  -3.240  0.4133E+01  0.5060E+02
  -3.230  0.4194E+01  0.5064E+02
  -3.220  0.4313E+01  0.5068E+02
  -3.210  0.4467E+01  0.5073E+02
  -3.200  0.4567E+01  0.5077E+02
  -3.190  0.4751E+01  0.5082E+02
  -3.180  0.6029E+01  0.5087E+02
  -3.170  0.4661E+01  0.5092E+02
  -3.160  0.4488E+01  0.5097E+02
  -3.150  0.4326E+01  0.5101E+02
  -3.140  0.4257E+01  0.5105E+02
  -3.130  0.4098E+01  0.5110E+02
  -3.120  0.4019E+01  0.5114E+02
  -3.110  0.3956E+01  0.5118E+02
  -3.100  0.3966E+01  0.5122E+02
  -3.090  0.3905E+01  0.5126E+02
  -3.080  0.3891E+01  0.5129E+02
  -3.070  0.3935E+01  0.5133E+02
  -3.060  0.3957E+01  0.5137E+02
  -3.050  0.4304E+01  0.5141E+02
  -3.040  0.6070E+01  0.5146E+02
  -3.030  0.4146E+01  0.5151E+02
  -3.020  0.3819E+01  0.5155E+02
  -3.010  0.3735E+01  0.5158E+02
  -3.000  0.3666E+01  0.5162E+02
  -2.990  0.3588E+01  0.5166E+02
  -2.980  0.3532E+01  0.5169E+02
  -2.970  0.3489E+01  0.5173E+02
  -2.960  0.3480E+01  0.5176E+02
  -2.950  0.3436E+01  0.5180E+02
  -2.940  0.3290E+01  0.5183E+02
  -2.930  0.3170E+01  0.5186E+02
  -2.920  0.3465E+01  0.5190E+02
  -2.910  0.3422E+01  0.5193E+02
  -2.900  0.3309E+01  0.5197E+02
  -2.890  0.3291E+01  0.5200E+02
  -2.880  0.3289E+01  0.5203E+02
  -2.870  0.3289E+01  0.5207E+02
  -2.860  0.3248E+01  0.5210E+02
  -2.850  0.3142E+01  0.5213E+02
  -2.840  0.3072E+01  0.5216E+02
  -2.830  0.3020E+01  0.5219E+02
  -2.820  0.2975E+01  0.5222E+02
  -2.810  0.2969E+01  0.5225E+02
  -2.800  0.2956E+01  0.5228E+02
  -2.790  0.2938E+01  0.5231E+02
  -2.780  0.2931E+01  0.5234E+02
  -2.770  0.2938E+01  0.5237E+02
  -2.760  0.2881E+01  0.5240E+02
  -2.750  0.2837E+01  0.5243E+02
  -2.740  0.2829E+01  0.5246E+02
  -2.730  0.2828E+01  0.5248E+02
  -2.720  0.2810E+01  0.5251E+02
  -2.710  0.2785E+01  0.5254E+02
  -2.700  0.2849E+01  0.5257E+02
  -2.690  0.2811E+01  0.5260E+02
  -2.680  0.3022E+01  0.5263E+02
  -2.670  0.3479E+01  0.5266E+02
  -2.660  0.2520E+01  0.5269E+02
  -2.650  0.3857E+01  0.5271E+02
  -2.640  0.2294E+01  0.5274E+02
  -2.630  0.2297E+01  0.5277E+02
  -2.620  0.2300E+01  0.5279E+02
  -2.610  0.2335E+01  0.5281E+02
  -2.600  0.2331E+01  0.5284E+02
  -2.590  0.2333E+01  0.5286E+02
  -2.580  0.2475E+01  0.5288E+02
  -2.570  0.2504E+01  0.5291E+02
  -2.560  0.2511E+01  0.5293E+02
  -2.550  0.2931E+01  0.5296E+02
  -2.540  0.2563E+01  0.5299E+02
  -2.530  0.3016E+01  0.5302E+02
  -2.520  0.2427E+01  0.5305E+02
  -2.510  0.2452E+01  0.5307E+02
  -2.500  0.2448E+01  0.5310E+02
  -2.490  0.2446E+01  0.5312E+02
  -2.480  0.2460E+01  0.5314E+02
  -2.470  0.2545E+01  0.5317E+02
  -2.460  0.2564E+01  0.5320E+02
  -2.450  0.2644E+01  0.5322E+02
  -2.440  0.2683E+01  0.5325E+02
  -2.430  0.2568E+01  0.5327E+02
  -2.420  0.2585E+01  0.5330E+02
  -2.410  0.2606E+01  0.5333E+02
  -2.400  0.2564E+01  0.5335E+02
  -2.390  0.2597E+01  0.5338E+02
  -2.380  0.2535E+01  0.5340E+02
  -2.370  0.2492E+01  0.5343E+02
  -2.360  0.2479E+01  0.5345E+02
  -2.350  0.2467E+01  0.5348E+02
  -2.340  0.2468E+01  0.5350E+02
  -2.330  0.2481E+01  0.5353E+02
  -2.320  0.2481E+01  0.5355E+02
  -2.310  0.2477E+01  0.5358E+02
  -2.300  0.2496E+01  0.5360E+02
  -2.290  0.2508E+01  0.5363E+02
  -2.280  0.2511E+01  0.5365E+02
  -2.270  0.3385E+01  0.5368E+02
  -2.260  0.2365E+01  0.5370E+02
  -2.250  0.2375E+01  0.5373E+02
  -2.240  0.2385E+01  0.5375E+02
  -2.230  0.2392E+01  0.5377E+02
  -2.220  0.2403E+01  0.5380E+02
  -2.210  0.2441E+01  0.5382E+02
  -2.200  0.2479E+01  0.5385E+02
  -2.190  0.2990E+01  0.5387E+02
  -2.180  0.3214E+01  0.5390E+02
  -2.170  0.3407E+01  0.5394E+02
  -2.160  0.3515E+01  0.5397E+02
  -2.150  0.3510E+01  0.5401E+02
  -2.140  0.3588E+01  0.5404E+02
  -2.130  0.3695E+01  0.5408E+02
  -2.120  0.3775E+01  0.5412E+02
  -2.110  0.3733E+01  0.5415E+02
  -2.100  0.3813E+01  0.5419E+02
  -2.090  0.3858E+01  0.5423E+02
  -2.080  0.3914E+01  0.5427E+02
  -2.070  0.3917E+01  0.5431E+02
  -2.060  0.3884E+01  0.5435E+02
  -2.050  0.3852E+01  0.5439E+02
  -2.040  0.3804E+01  0.5442E+02
  -2.030  0.3883E+01  0.5446E+02
  -2.020  0.3958E+01  0.5450E+02
  -2.010  0.4097E+01  0.5454E+02
  -2.000  0.4289E+01  0.5458E+02
  -1.990  0.4409E+01  0.5463E+02
  -1.980  0.5390E+01  0.5467E+02
  -1.970  0.4760E+01  0.5472E+02
  -1.960  0.4610E+01  0.5477E+02
  -1.950  0.4551E+01  0.5482E+02
  -1.940  0.4627E+01  0.5486E+02
  -1.930  0.4815E+01  0.5491E+02
  -1.920  0.4530E+01  0.5496E+02
  -1.910  0.4463E+01  0.5500E+02
  -1.900  0.4413E+01  0.5505E+02
  -1.890  0.4406E+01  0.5509E+02
  -1.880  0.4478E+01  0.5513E+02
  -1.870  0.4830E+01  0.5518E+02
  -1.860  0.5132E+01  0.5524E+02
  -1.850  0.4645E+01  0.5529E+02
  -1.840  0.4499E+01  0.5533E+02
  -1.830  0.4416E+01  0.5538E+02
  -1.820  0.3483E+01  0.5542E+02
  -1.810  0.5032E+01  0.5546E+02
  -1.800  0.5504E+01  0.5552E+02
  -1.790  0.4864E+01  0.5557E+02
  -1.780  0.4420E+01  0.5562E+02
  -1.770  0.4371E+01  0.5566E+02
  -1.760  0.4468E+01  0.5571E+02
  -1.750  0.4410E+01  0.5575E+02
  -1.740  0.4316E+01  0.5579E+02
  -1.730  0.4289E+01  0.5584E+02
  -1.720  0.4472E+01  0.5588E+02
  -1.710  0.4397E+01  0.5593E+02
  -1.700  0.4355E+01  0.5597E+02
  -1.690  0.4418E+01  0.5601E+02
  -1.680  0.4531E+01  0.5606E+02
  -1.670  0.4445E+01  0.5611E+02
  -1.660  0.4441E+01  0.5615E+02
  -1.650  0.4468E+01  0.5619E+02
  -1.640  0.4383E+01  0.5624E+02
  -1.630  0.4205E+01  0.5628E+02
  -1.620  0.3909E+01  0.5632E+02
  -1.610  0.3767E+01  0.5636E+02
  -1.600  0.3803E+01  0.5640E+02
  -1.590  0.3687E+01  0.5644E+02
  -1.580  0.3597E+01  0.5648E+02
  -1.570  0.3669E+01  0.5651E+02
  -1.560  0.3454E+01  0.5655E+02
  -1.550  0.3552E+01  0.5658E+02
  -1.540  0.3485E+01  0.5662E+02
  -1.530  0.2333E+01  0.5665E+02
  -1.520  0.2176E+01  0.5667E+02
  -1.510  0.2160E+01  0.5669E+02
  -1.500  0.2126E+01  0.5671E+02
  -1.490  0.2070E+01  0.5674E+02
  -1.480  0.2070E+01  0.5676E+02
  -1.470  0.2067E+01  0.5678E+02
  -1.460  0.2068E+01  0.5680E+02
  -1.450  0.2041E+01  0.5682E+02
  -1.440  0.2026E+01  0.5684E+02
  -1.430  0.2014E+01  0.5686E+02
  -1.420  0.2004E+01  0.5688E+02
  -1.410  0.1983E+01  0.5690E+02
  -1.400  0.1962E+01  0.5692E+02
  -1.390  0.1957E+01  0.5694E+02
  -1.380  0.1969E+01  0.5696E+02
  -1.370  0.1996E+01  0.5698E+02
  -1.360  0.2027E+01  0.5700E+02
  -1.350  0.2067E+01  0.5702E+02
  -1.340  0.2092E+01  0.5704E+02
  -1.330  0.2152E+01  0.5707E+02
  -1.320  0.2120E+01  0.5709E+02
  -1.310  0.2083E+01  0.5711E+02
  -1.300  0.2074E+01  0.5713E+02
  -1.290  0.2039E+01  0.5715E+02
  -1.280  0.2043E+01  0.5717E+02
  -1.270  0.2107E+01  0.5719E+02
  -1.260  0.2242E+01  0.5721E+02
  -1.250  0.2195E+01  0.5724E+02
  -1.240  0.2223E+01  0.5726E+02
  -1.230  0.2731E+01  0.5729E+02
  -1.220  0.2264E+01  0.5731E+02
  -1.210  0.2311E+01  0.5734E+02
  -1.200  0.2379E+01  0.5736E+02
  -1.190  0.2487E+01  0.5738E+02
  -1.180  0.2536E+01  0.5741E+02
  -1.170  0.2843E+01  0.5744E+02
  -1.160  0.2722E+01  0.5746E+02
  -1.150  0.2434E+01  0.5749E+02
  -1.140  0.2508E+01  0.5751E+02
  -1.130  0.2595E+01  0.5754E+02
  -1.120  0.2711E+01  0.5756E+02
  -1.110  0.2871E+01  0.5759E+02
  -1.100  0.3065E+01  0.5762E+02
  -1.090  0.3084E+01  0.5765E+02
  -1.080  0.3271E+01  0.5768E+02
  -1.070  0.3376E+01  0.5772E+02
  -1.060  0.3758E+01  0.5775E+02
  -1.050  0.4595E+01  0.5780E+02
  -1.040  0.6346E+01  0.5785E+02
  -1.030  0.4682E+01  0.5791E+02
  -1.020  0.3195E+01  0.5795E+02
  -1.010  0.3397E+01  0.5798E+02
  -1.000  0.4300E+01  0.5802E+02
  -0.990  0.4596E+01  0.5806E+02
  -0.980  0.4328E+01  0.5811E+02
  -0.970  0.2162E+01  0.5815E+02
  -0.960  0.2141E+01  0.5817E+02
  -0.950  0.2121E+01  0.5819E+02
  -0.940  0.2102E+01  0.5822E+02
  -0.930  0.2086E+01  0.5824E+02
  -0.920  0.2065E+01  0.5826E+02
  -0.910  0.2054E+01  0.5828E+02
  -0.900  0.2075E+01  0.5830E+02
  -0.890  0.2100E+01  0.5832E+02
  -0.880  0.2120E+01  0.5834E+02
  -0.870  0.2149E+01  0.5836E+02
  -0.860  0.2148E+01  0.5838E+02
  -0.850  0.2152E+01  0.5841E+02
  -0.840  0.2149E+01  0.5843E+02
  -0.830  0.2119E+01  0.5845E+02
  -0.820  0.2083E+01  0.5847E+02
  -0.810  0.2054E+01  0.5849E+02
  -0.800  0.2022E+01  0.5851E+02
  -0.790  0.1991E+01  0.5853E+02
  -0.780  0.1960E+01  0.5855E+02
  -0.770  0.1928E+01  0.5857E+02
  -0.760  0.1919E+01  0.5859E+02
  -0.750  0.1932E+01  0.5861E+02
  -0.740  0.1957E+01  0.5863E+02
  -0.730  0.1981E+01  0.5865E+02
  -0.720  0.2010E+01  0.5867E+02
  -0.710  0.2034E+01  0.5869E+02
  -0.700  0.2078E+01  0.5871E+02
  -0.690  0.2091E+01  0.5873E+02
  -0.680  0.2103E+01  0.5875E+02
  -0.670  0.2112E+01  0.5877E+02
  -0.660  0.2396E+01  0.5879E+02
  -0.650  0.2534E+01  0.5882E+02
  -0.640  0.2767E+01  0.5885E+02
  -0.630  0.3012E+01  0.5887E+02
  -0.620  0.2987E+01  0.5890E+02
  -0.610  0.3023E+01  0.5893E+02
  -0.600  0.2359E+01  0.5896E+02
  -0.590  0.2183E+01  0.5898E+02
  -0.580  0.2175E+01  0.5900E+02
  -0.570  0.2235E+01  0.5903E+02
  -0.560  0.2255E+01  0.5905E+02
  -0.550  0.2286E+01  0.5908E+02
  -0.540  0.2266E+01  0.5910E+02
  -0.530  0.2255E+01  0.5912E+02
  -0.520  0.2264E+01  0.5914E+02
  -0.510  0.2294E+01  0.5917E+02
  -0.500  0.2393E+01  0.5919E+02
  -0.490  0.2505E+01  0.5922E+02
  -0.480  0.2434E+01  0.5924E+02
  -0.470  0.2570E+01  0.5927E+02
  -0.460  0.2593E+01  0.5929E+02
  -0.450  0.2589E+01  0.5932E+02
  -0.440  0.2720E+01  0.5935E+02
  -0.430  0.2805E+01  0.5937E+02
  -0.420  0.2841E+01  0.5940E+02
  -0.410  0.2981E+01  0.5943E+02
  -0.400  0.3105E+01  0.5946E+02
  -0.390  0.3046E+01  0.5949E+02
  -0.380  0.3087E+01  0.5953E+02
  -0.370  0.2964E+01  0.5956E+02
  -0.360  0.2909E+01  0.5959E+02
  -0.350  0.3014E+01  0.5961E+02
  -0.340  0.3239E+01  0.5965E+02
  -0.330  0.3069E+01  0.5968E+02
  -0.320  0.2765E+01  0.5971E+02
  -0.310  0.1894E+01  0.5973E+02
  -0.300  0.1533E+01  0.5975E+02
  -0.290  0.1404E+01  0.5976E+02
  -0.280  0.1302E+01  0.5978E+02
  -0.270  0.1303E+01  0.5979E+02
  -0.260  0.1313E+01  0.5980E+02
  -0.250  0.1286E+01  0.5982E+02
  -0.240  0.1995E+01  0.5983E+02
  -0.230  0.1283E+01  0.5985E+02
  -0.220  0.9053E+00  0.5986E+02
  -0.210  0.8178E+00  0.5987E+02
  -0.200  0.7544E+00  0.5987E+02
  -0.190  0.7201E+00  0.5988E+02
  -0.180  0.7045E+00  0.5989E+02
  -0.170  0.7272E+00  0.5989E+02
  -0.160  0.5332E+00  0.5990E+02
  -0.150  0.5152E+00  0.5991E+02
  -0.140  0.5037E+00  0.5991E+02
  -0.130  0.4922E+00  0.5992E+02
  -0.120  0.4918E+00  0.5992E+02
  -0.110  0.4965E+00  0.5993E+02
  -0.100  0.4777E+00  0.5993E+02
  -0.090  0.4170E+00  0.5994E+02
  -0.080  0.3951E+00  0.5994E+02
  -0.070  0.3733E+00  0.5994E+02
  -0.060  0.3514E+00  0.5995E+02
  -0.050  0.3379E+00  0.5995E+02
  -0.040  0.3309E+00  0.5995E+02
  -0.030  0.3241E+00  0.5996E+02
  -0.020  0.3163E+00  0.5996E+02
  -0.010  0.3086E+00  0.5996E+02
   0.000  0.3008E+00  0.5997E+02
   0.010  0.2762E+00  0.5997E+02
   0.020  0.2715E+00  0.5997E+02
   0.030  0.2841E+00  0.5998E+02
   0.040  0.3358E+00  0.5998E+02
   0.050  0.2963E+00  0.5998E+02
   0.060  0.2567E+00  0.5998E+02
   0.070  0.2510E+00  0.5999E+02
   0.080  0.2299E+00  0.5999E+02
   0.090  0.2089E+00  0.5999E+02
   0.100  0.1879E+00  0.5999E+02
   0.110  0.2624E+00  0.6000E+02
   0.120  0.2182E+00  0.6000E+02
   0.130  0.0000E+00  0.6000E+02
   0.140  0.0000E+00  0.6000E+02
   0.150  0.0000E+00  0.6000E+02
   0.160  0.0000E+00  0.6000E+02
   0.170  0.0000E+00  0.6000E+02
   0.180  0.0000E+00  0.6000E+02
   0.190  0.0000E+00  0.6000E+02
   0.200  0.0000E+00  0.6000E+02
   0.210  0.0000E+00  0.6000E+02
   0.220  0.0000E+00  0.6000E+02
   0.230  0.0000E+00  0.6000E+02
   0.240  0.0000E+00  0.6000E+02
   0.250  0.0000E+00  0.6000E+02
   0.260  0.0000E+00  0.6000E+02
   0.270  0.0000E+00  0.6000E+02
   0.280  0.0000E+00  0.6000E+02
   0.290  0.0000E+00  0.6000E+02
   0.300  0.0000E+00  0.6000E+02
   0.310  0.0000E+00  0.6000E+02
   0.320  0.0000E+00  0.6000E+02
   0.330  0.0000E+00  0.6000E+02
   0.340  0.0000E+00  0.6000E+02
   0.350  0.0000E+00  0.6000E+02
   0.360  0.0000E+00  0.6000E+02
   0.370  0.0000E+00  0.6000E+02
   0.380  0.0000E+00  0.6000E+02
   0.390  0.0000E+00  0.6000E+02
   0.400  0.0000E+00  0.6000E+02
   0.410  0.0000E+00  0.6000E+02
   0.420  0.0000E+00  0.6000E+02
   0.430  0.0000E+00  0.6000E+02
   0.440  0.0000E+00  0.6000E+02
   0.450  0.0000E+00  0.6000E+02
   0.460  0.0000E+00  0.6000E+02
   0.470  0.0000E+00  0.6000E+02
   0.480  0.0000E+00  0.6000E+02
   0.490  0.0000E+00  0.6000E+02
   0.500  0.0000E+00  0.6000E+02
   0.510  0.0000E+00  0.6000E+02
   0.520  0.0000E+00  0.6000E+02
   0.530  0.0000E+00  0.6000E+02
   0.540  0.0000E+00  0.6000E+02
   0.550  0.0000E+00  0.6000E+02
   0.560  0.0000E+00  0.6000E+02
   0.570  0.0000E+00  0.6000E+02
   0.580  0.0000E+00  0.6000E+02
   0.590  0.0000E+00  0.6000E+02
   0.600  0.0000E+00  0.6000E+02
   0.610  0.0000E+00  0.6000E+02
   0.620  0.0000E+00  0.6000E+02
   0.630  0.0000E+00  0.6000E+02
   0.640  0.0000E+00  0.6000E+02
   0.650  0.0000E+00  0.6000E+02
   0.660  0.0000E+00  0.6000E+02
   0.670  0.0000E+00  0.6000E+02
   0.680  0.0000E+00  0.6000E+02
   0.690  0.0000E+00  0.6000E+02
   0.700  0.0000E+00  0.6000E+02
   0.710  0.0000E+00  0.6000E+02
   0.720  0.0000E+00  0.6000E+02
   0.730  0.0000E+00  0.6000E+02
   0.740  0.0000E+00  0.6000E+02
   0.750  0.0000E+00  0.6000E+02
   0.760  0.0000E+00  0.6000E+02
   0.770  0.0000E+00  0.6000E+02
   0.780  0.0000E+00  0.6000E+02
   0.790  0.0000E+00  0.6000E+02
   0.800  0.0000E+00  0.6000E+02
   0.810  0.0000E+00  0.6000E+02
   0.820  0.0000E+00  0.6000E+02
   0.830  0.0000E+00  0.6000E+02
   0.840  0.0000E+00  0.6000E+02
   0.850  0.0000E+00  0.6000E+02
   0.860  0.0000E+00  0.6000E+02
   0.870  0.0000E+00  0.6000E+02
   0.880  0.0000E+00  0.6000E+02
   0.890  0.0000E+00  0.6000E+02
   0.900  0.0000E+00  0.6000E+02
   0.910  0.0000E+00  0.6000E+02
   0.920  0.0000E+00  0.6000E+02
   0.930  0.0000E+00  0.6000E+02
   0.940  0.0000E+00  0.6000E+02
   0.950  0.0000E+00  0.6000E+02
   0.960  0.0000E+00  0.6000E+02
   0.970  0.0000E+00  0.6000E+02
   0.980  0.0000E+00  0.6000E+02
   0.990  0.0000E+00  0.6000E+02
   1.000  0.0000E+00  0.6000E+02
   1.010  0.0000E+00  0.6000E+02
   1.020  0.0000E+00  0.6000E+02
   1.030  0.5584E+00  0.6000E+02
   1.040  0.3487E+00  0.6001E+02
   1.050  0.1937E+01  0.6002E+02
   1.060  0.2198E+01  0.6004E+02
   1.070  0.1642E+01  0.6006E+02
   1.080  0.1816E+01  0.6007E+02
   1.090  0.2069E+01  0.6009E+02
   1.100  0.2178E+01  0.6011E+02
   1.110  0.1927E+01  0.6013E+02
   1.120  0.1996E+01  0.6015E+02
   1.130  0.1987E+01  0.6017E+02
   1.140  0.1991E+01  0.6019E+02
   1.150  0.2067E+01  0.6021E+02
   1.160  0.2167E+01  0.6024E+02
   1.170  0.2111E+01  0.6026E+02
   1.180  0.2440E+01  0.6028E+02
   1.190  0.2278E+01  0.6030E+02
   1.200  0.2403E+01  0.6033E+02
   1.210  0.2520E+01  0.6035E+02
   1.220  0.2506E+01  0.6038E+02
   1.230  0.3264E+01  0.6041E+02
   1.240  0.3046E+01  0.6044E+02
   1.250  0.3275E+01  0.6047E+02
   1.260  0.3546E+01  0.6051E+02
   1.270  0.3254E+01  0.6054E+02
   1.280  0.3081E+01  0.6057E+02
   1.290  0.2969E+01  0.6060E+02
   1.300  0.2912E+01  0.6063E+02
   1.310  0.2886E+01  0.6066E+02
   1.320  0.2724E+01  0.6069E+02
   1.330  0.2829E+01  0.6072E+02
   1.340  0.2823E+01  0.6075E+02
   1.350  0.2856E+01  0.6077E+02
   1.360  0.2887E+01  0.6080E+02
   1.370  0.3170E+01  0.6084E+02
   1.380  0.3627E+01  0.6087E+02
   1.390  0.3279E+01  0.6091E+02
   1.400  0.3257E+01  0.6094E+02
   1.410  0.3264E+01  0.6097E+02
   1.420  0.3199E+01  0.6100E+02
   1.430  0.3167E+01  0.6104E+02
   1.440  0.2939E+01  0.6107E+02
   1.450  0.2778E+01  0.6110E+02
   1.460  0.2894E+01  0.6113E+02
   1.470  0.7148E+01  0.6118E+02
   1.480  0.4892E+01  0.6123E+02
   1.490  0.9832E+01  0.6129E+02
   1.500  0.9996E+01  0.6139E+02
   1.510  0.9267E+01  0.6149E+02
   1.520  0.9491E+01  0.6158E+02
   1.530  0.6759E+01  0.6166E+02
   1.540  0.6185E+01  0.6173E+02
   1.550  0.5830E+01  0.6178E+02
   1.560  0.5541E+01  0.6184E+02
   1.570  0.4797E+01  0.6189E+02
   1.580  0.5126E+01  0.6194E+02
   1.590  0.3029E+01  0.6199E+02
   1.600  0.2915E+01  0.6201E+02
   1.610  0.2448E+01  0.6204E+02
   1.620  0.2384E+01  0.6207E+02
   1.630  0.2204E+01  0.6209E+02
   1.640  0.2162E+01  0.6211E+02
   1.650  0.2113E+01  0.6213E+02
   1.660  0.2048E+01  0.6215E+02
   1.670  0.1971E+01  0.6217E+02
   1.680  0.2019E+01  0.6219E+02
   1.690  0.1970E+01  0.6221E+02
   1.700  0.1999E+01  0.6223E+02
   1.710  0.2030E+01  0.6225E+02
   1.720  0.1976E+01  0.6227E+02
   1.730  0.2016E+01  0.6230E+02
   1.740  0.2028E+01  0.6232E+02
   1.750  0.2047E+01  0.6234E+02
   1.760  0.2579E+01  0.6236E+02
   1.770  0.2883E+01  0.6239E+02
   1.780  0.3204E+01  0.6242E+02
   1.790  0.3835E+01  0.6245E+02
   1.800  0.3827E+01  0.6249E+02
   1.810  0.3832E+01  0.6253E+02
   1.820  0.4008E+01  0.6257E+02
   1.830  0.3787E+01  0.6261E+02
   1.840  0.3593E+01  0.6265E+02
   1.850  0.3476E+01  0.6268E+02
   1.860  0.3368E+01  0.6272E+02
   1.870  0.3281E+01  0.6275E+02
   1.880  0.3305E+01  0.6278E+02
   1.890  0.3390E+01  0.6281E+02
   1.900  0.3480E+01  0.6285E+02
   1.910  0.3565E+01  0.6288E+02
   1.920  0.3835E+01  0.6292E+02
   1.930  0.3796E+01  0.6296E+02
   1.940  0.4360E+01  0.6300E+02
   1.950  0.3712E+01  0.6304E+02
   1.960  0.3511E+01  0.6307E+02
   1.970  0.3397E+01  0.6311E+02
   1.980  0.3315E+01  0.6314E+02
   1.990  0.3223E+01  0.6317E+02
   2.000  0.3158E+01  0.6321E+02
   2.010  0.3116E+01  0.6324E+02
   2.020  0.3087E+01  0.6327E+02
   2.030  0.3057E+01  0.6330E+02
   2.040  0.3034E+01  0.6333E+02
   2.050  0.3001E+01  0.6336E+02
   2.060  0.2958E+01  0.6339E+02
   2.070  0.2955E+01  0.6342E+02
   2.080  0.2930E+01  0.6345E+02
   2.090  0.2901E+01  0.6348E+02
   2.100  0.2877E+01  0.6351E+02
   2.110  0.2846E+01  0.6354E+02
   2.120  0.2831E+01  0.6356E+02
   2.130  0.2815E+01  0.6359E+02
   2.140  0.2802E+01  0.6362E+02
   2.150  0.2806E+01  0.6365E+02
   2.160  0.3124E+01  0.6368E+02
   2.170  0.3155E+01  0.6371E+02
   2.180  0.2868E+01  0.6374E+02
   2.190  0.2870E+01  0.6377E+02
   2.200  0.2854E+01  0.6379E+02
   2.210  0.2869E+01  0.6382E+02
   2.220  0.2886E+01  0.6385E+02
   2.230  0.3137E+01  0.6388E+02
   2.240  0.3002E+01  0.6391E+02
   2.250  0.3014E+01  0.6394E+02
   2.260  0.3014E+01  0.6397E+02
   2.270  0.3013E+01  0.6400E+02
   2.280  0.3176E+01  0.6404E+02
   2.290  0.3166E+01  0.6407E+02
   2.300  0.2986E+01  0.6410E+02
   2.310  0.3020E+01  0.6413E+02
   2.320  0.3036E+01  0.6416E+02
   2.330  0.3062E+01  0.6419E+02
   2.340  0.3101E+01  0.6422E+02
   2.350  0.3069E+01  0.6425E+02
   2.360  0.3040E+01  0.6428E+02
   2.370  0.2925E+01  0.6431E+02
   2.380  0.2913E+01  0.6434E+02
   2.390  0.2931E+01  0.6437E+02
   2.400  0.2925E+01  0.6440E+02
   2.410  0.2947E+01  0.6443E+02
   2.420  0.3232E+01  0.6446E+02
   2.430  0.3120E+01  0.6449E+02
   2.440  0.3102E+01  0.6453E+02
   2.450  0.3111E+01  0.6456E+02
   2.460  0.3027E+01  0.6459E+02
   2.470  0.3271E+01  0.6462E+02
   2.480  0.3324E+01  0.6465E+02
   2.490  0.3217E+01  0.6469E+02
   2.500  0.3228E+01  0.6472E+02
   2.510  0.3246E+01  0.6475E+02
   2.520  0.3228E+01  0.6478E+02
   2.530  0.3255E+01  0.6482E+02
   2.540  0.3314E+01  0.6485E+02
   2.550  0.3334E+01  0.6488E+02
   2.560  0.3342E+01  0.6492E+02
   2.570  0.3393E+01  0.6495E+02
   2.580  0.3412E+01  0.6498E+02
   2.590  0.3434E+01  0.6502E+02
   2.600  0.3462E+01  0.6505E+02
   2.610  0.3531E+01  0.6509E+02
   2.620  0.3632E+01  0.6512E+02
   2.630  0.3681E+01  0.6516E+02
   2.640  0.3718E+01  0.6520E+02
   2.650  0.3752E+01  0.6523E+02
   2.660  0.3893E+01  0.6527E+02
   2.670  0.3959E+01  0.6531E+02
   2.680  0.3941E+01  0.6535E+02
   2.690  0.5067E+01  0.6539E+02
   2.700  0.4348E+01  0.6545E+02
   2.710  0.4218E+01  0.6549E+02
   2.720  0.4133E+01  0.6553E+02
   2.730  0.4061E+01  0.6557E+02
   2.740  0.3935E+01  0.6561E+02
   2.750  0.3917E+01  0.6565E+02
   2.760  0.3872E+01  0.6569E+02
   2.770  0.3812E+01  0.6573E+02
   2.780  0.3810E+01  0.6577E+02
   2.790  0.3829E+01  0.6581E+02
   2.800  0.3761E+01  0.6585E+02
   2.810  0.3725E+01  0.6588E+02
   2.820  0.3703E+01  0.6592E+02
   2.830  0.3707E+01  0.6596E+02
   2.840  0.3697E+01  0.6599E+02
   2.850  0.3661E+01  0.6603E+02
   2.860  0.3722E+01  0.6607E+02
   2.870  0.3692E+01  0.6611E+02
   2.880  0.3287E+01  0.6614E+02
   2.890  0.3316E+01  0.6617E+02
   2.900  0.3454E+01  0.6621E+02
   2.910  0.3504E+01  0.6624E+02
   2.920  0.3554E+01  0.6628E+02
   2.930  0.3491E+01  0.6631E+02
   2.940  0.3599E+01  0.6635E+02
   2.950  0.3608E+01  0.6638E+02
   2.960  0.3713E+01  0.6642E+02
   2.970  0.3820E+01  0.6646E+02
   2.980  0.3937E+01  0.6650E+02
   2.990  0.3954E+01  0.6654E+02
   3.000  0.3568E+01  0.6657E+02
   3.010  0.3390E+01  0.6661E+02
   3.020  0.3167E+01  0.6664E+02
   3.030  0.3229E+01  0.6667E+02
   3.040  0.3108E+01  0.6671E+02
   3.050  0.3113E+01  0.6674E+02
   3.060  0.3322E+01  0.6677E+02
   3.070  0.3494E+01  0.6680E+02
   3.080  0.5265E+01  0.6684E+02
   3.090  0.3652E+01  0.6688E+02
   3.100  0.3556E+01  0.6691E+02
   3.110  0.3266E+01  0.6695E+02
   3.120  0.2905E+01  0.6698E+02
   3.130  0.2813E+01  0.6701E+02
   3.140  0.2724E+01  0.6704E+02
   3.150  0.2587E+01  0.6706E+02
   3.160  0.2250E+01  0.6709E+02
   3.170  0.2221E+01  0.6711E+02
   3.180  0.2221E+01  0.6713E+02
   3.190  0.2263E+01  0.6715E+02
   3.200  0.2301E+01  0.6718E+02
   3.210  0.2432E+01  0.6720E+02
   3.220  0.2481E+01  0.6722E+02
   3.230  0.2572E+01  0.6725E+02
   3.240  0.2603E+01  0.6728E+02
   3.250  0.2633E+01  0.6730E+02
   3.260  0.2621E+01  0.6733E+02
   3.270  0.2469E+01  0.6735E+02
   3.280  0.2462E+01  0.6738E+02
   3.290  0.2533E+01  0.6740E+02
   3.300  0.2521E+01  0.6743E+02
   3.310  0.2509E+01  0.6745E+02
   3.320  0.2497E+01  0.6748E+02
   3.330  0.2353E+01  0.6750E+02
   3.340  0.2389E+01  0.6753E+02
   3.350  0.2463E+01  0.6755E+02
   3.360  0.2629E+01  0.6758E+02
   3.370  0.2680E+01  0.6760E+02
   3.380  0.2732E+01  0.6763E+02
   3.390  0.2793E+01  0.6766E+02
   3.400  0.2869E+01  0.6769E+02
   3.410  0.2828E+01  0.6772E+02
   3.420  0.2801E+01  0.6774E+02
   3.430  0.2770E+01  0.6777E+02
   3.440  0.2752E+01  0.6780E+02
   3.450  0.2725E+01  0.6783E+02
   3.460  0.2694E+01  0.6785E+02
   3.470  0.2676E+01  0.6788E+02
   3.480  0.2684E+01  0.6791E+02
   3.490  0.2689E+01  0.6793E+02
   3.500  0.2692E+01  0.6796E+02
   3.510  0.2697E+01  0.6799E+02
   3.520  0.2701E+01  0.6801E+02
   3.530  0.2701E+01  0.6804E+02
   3.540  0.2712E+01  0.6807E+02
   3.550  0.2732E+01  0.6810E+02
   3.560  0.2771E+01  0.6812E+02
   3.570  0.2828E+01  0.6815E+02
   3.580  0.2898E+01  0.6818E+02
   3.590  0.2929E+01  0.6821E+02
   3.600  0.2966E+01  0.6824E+02
   3.610  0.3022E+01  0.6827E+02
   3.620  0.3108E+01  0.6830E+02
   3.630  0.3267E+01  0.6833E+02
   3.640  0.3325E+01  0.6836E+02
   3.650  0.3435E+01  0.6840E+02
   3.660  0.3179E+01  0.6843E+02
   3.670  0.3092E+01  0.6846E+02
   3.680  0.3144E+01  0.6849E+02
   3.690  0.3181E+01  0.6853E+02
   3.700  0.3204E+01  0.6856E+02
   3.710  0.3178E+01  0.6859E+02
   3.720  0.3198E+01  0.6862E+02
   3.730  0.2974E+01  0.6865E+02
   3.740  0.3456E+01  0.6868E+02
   3.750  0.5010E+01  0.6873E+02
   3.760  0.4247E+01  0.6878E+02
   3.770  0.4224E+01  0.6882E+02
   3.780  0.4355E+01  0.6886E+02
   3.790  0.4414E+01  0.6890E+02
   3.800  0.4569E+01  0.6895E+02
   3.810  0.4972E+01  0.6900E+02
   3.820  0.5184E+01  0.6905E+02
   3.830  0.5402E+01  0.6910E+02
   3.840  0.6168E+01  0.6916E+02
   3.850  0.5908E+01  0.6922E+02
   3.860  0.7015E+01  0.6928E+02
   3.870  0.6792E+01  0.6935E+02
   3.880  0.7249E+01  0.6942E+02
   3.890  0.6434E+01  0.6949E+02
   3.900  0.5207E+01  0.6954E+02
   3.910  0.4729E+01  0.6959E+02
   3.920  0.4976E+01  0.6964E+02
   3.930  0.4846E+01  0.6970E+02
   3.940  0.4617E+01  0.6974E+02
   3.950  0.5006E+01  0.6979E+02
   3.960  0.5532E+01  0.6985E+02
   3.970  0.5527E+01  0.6990E+02
   3.980  0.4356E+01  0.6994E+02
   3.990  0.4650E+01  0.6999E+02
   4.000  0.4887E+01  0.7004E+02
   4.010  0.5007E+01  0.7008E+02
   4.020  0.5010E+01  0.7013E+02
   4.030  0.5359E+01  0.7019E+02
   4.040  0.5020E+01  0.7024E+02
   4.050  0.5528E+01  0.7029E+02
   4.060  0.5411E+01  0.7035E+02
   4.070  0.5616E+01  0.7040E+02
   4.080  0.5924E+01  0.7046E+02
   4.090  0.6070E+01  0.7052E+02
   4.100  0.6546E+01  0.7058E+02
   4.110  0.6670E+01  0.7065E+02
   4.120  0.7158E+01  0.7072E+02
   4.130  0.6496E+01  0.7079E+02
   4.140  0.6228E+01  0.7085E+02
   4.150  0.6348E+01  0.7091E+02
   4.160  0.6112E+01  0.7098E+02
   4.170  0.5898E+01  0.7104E+02
   4.180  0.5066E+01  0.7109E+02
   4.190  0.4143E+01  0.7114E+02
   4.200  0.3155E+01  0.7118E+02
   4.210  0.2322E+01  0.7121E+02
   4.220  0.1953E+01  0.7123E+02
   4.230  0.1746E+01  0.7125E+02
   4.240  0.1536E+01  0.7126E+02
   4.250  0.2281E+01  0.7128E+02
   4.260  0.2133E+01  0.7131E+02
   4.270  0.2091E+01  0.7133E+02
   4.280  0.2119E+01  0.7135E+02
   4.290  0.2428E+01  0.7137E+02
   4.300  0.2064E+01  0.7139E+02
   4.310  0.1526E+01  0.7141E+02
   4.320  0.8315E+00  0.7142E+02
   4.330  0.8220E+00  0.7143E+02
   4.340  0.1130E+01  0.7144E+02
   4.350  0.1668E+01  0.7145E+02
   4.360  0.1749E+01  0.7147E+02
   4.370  0.2219E+01  0.7149E+02
   4.380  0.1964E+01  0.7151E+02
   4.390  0.1923E+01  0.7153E+02
   4.400  0.1878E+01  0.7155E+02
   4.410  0.1838E+01  0.7157E+02
   4.420  0.1795E+01  0.7159E+02
   4.430  0.2240E+01  0.7161E+02
   4.440  0.3058E+01  0.7164E+02
   4.450  0.2973E+01  0.7166E+02
   4.460  0.3143E+01  0.7169E+02
   4.470  0.6869E+01  0.7174E+02
   4.480  0.5773E+01  0.7179E+02
   4.490  0.7812E+01  0.7185E+02
   4.500  0.5887E+01  0.7192E+02
   4.510  0.3319E+01  0.7197E+02
   4.520  0.2970E+01  0.7200E+02
   4.530  0.3505E+01  0.7203E+02
   4.540  0.4282E+01  0.7207E+02
   4.550  0.4551E+01  0.7211E+02
   4.560  0.4219E+01  0.7216E+02
   4.570  0.3895E+01  0.7220E+02
   4.580  0.3677E+01  0.7224E+02
   4.590  0.3586E+01  0.7227E+02
   4.600  0.3515E+01  0.7231E+02
   4.610  0.3469E+01  0.7234E+02
   4.620  0.3437E+01  0.7238E+02
   4.630  0.3387E+01  0.7241E+02
   4.640  0.3354E+01  0.7245E+02
   4.650  0.3318E+01  0.7248E+02
   4.660  0.3141E+01  0.7251E+02
   4.670  0.3108E+01  0.7254E+02
   4.680  0.3076E+01  0.7257E+02
   4.690  0.3067E+01  0.7261E+02
   4.700  0.3103E+01  0.7264E+02
   4.710  0.3057E+01  0.7267E+02
   4.720  0.3020E+01  0.7270E+02
   4.730  0.3008E+01  0.7273E+02
   4.740  0.3377E+01  0.7276E+02
   4.750  0.3195E+01  0.7279E+02
   4.760  0.3189E+01  0.7282E+02
   4.770  0.3339E+01  0.7286E+02
   4.780  0.2532E+01  0.7289E+02
   4.790  0.2557E+01  0.7292E+02
   4.800  0.2596E+01  0.7294E+02
   4.810  0.2612E+01  0.7297E+02
   4.820  0.2611E+01  0.7299E+02
   4.830  0.2612E+01  0.7302E+02
   4.840  0.2630E+01  0.7305E+02
   4.850  0.2622E+01  0.7307E+02
   4.860  0.2628E+01  0.7310E+02
   4.870  0.2637E+01  0.7312E+02
   4.880  0.2646E+01  0.7315E+02
   4.890  0.2670E+01  0.7318E+02
   4.900  0.2699E+01  0.7320E+02
   4.910  0.2723E+01  0.7323E+02
   4.920  0.2757E+01  0.7326E+02
   4.930  0.2798E+01  0.7329E+02
   4.940  0.2863E+01  0.7332E+02
   4.950  0.2926E+01  0.7334E+02
   4.960  0.2960E+01  0.7337E+02
   4.970  0.3005E+01  0.7340E+02
   4.980  0.3066E+01  0.7343E+02
   4.990  0.3278E+01  0.7347E+02
   5.000  0.3429E+01  0.7350E+02
   5.010  0.3607E+01  0.7353E+02
   5.020  0.5213E+01  0.7358E+02
   5.030  0.7167E+01  0.7365E+02
   5.040  0.3608E+01  0.7371E+02
   5.050  0.3497E+01  0.7375E+02
   5.060  0.3425E+01  0.7378E+02
   5.070  0.3276E+01  0.7381E+02
   5.080  0.3167E+01  0.7385E+02
   5.090  0.3136E+01  0.7388E+02
   5.100  0.3106E+01  0.7391E+02
   5.110  0.3056E+01  0.7394E+02
   5.120  0.3030E+01  0.7397E+02
   5.130  0.2982E+01  0.7400E+02
   5.140  0.2939E+01  0.7403E+02
   5.150  0.2912E+01  0.7406E+02
   5.160  0.2914E+01  0.7409E+02
   5.170  0.2954E+01  0.7412E+02
   5.180  0.2922E+01  0.7415E+02
   5.190  0.2903E+01  0.7418E+02
   5.200  0.2887E+01  0.7421E+02
   5.210  0.2872E+01  0.7423E+02
   5.220  0.2871E+01  0.7426E+02
   5.230  0.2871E+01  0.7429E+02
   5.240  0.2889E+01  0.7432E+02
   5.250  0.2974E+01  0.7435E+02
   5.260  0.2876E+01  0.7438E+02
   5.270  0.2837E+01  0.7441E+02
   5.280  0.2805E+01  0.7444E+02
   5.290  0.2774E+01  0.7446E+02
   5.300  0.3045E+01  0.7449E+02
   5.310  0.2839E+01  0.7452E+02
   5.320  0.2679E+01  0.7455E+02
   5.330  0.2601E+01  0.7458E+02
   5.340  0.2403E+01  0.7460E+02
   5.350  0.3589E+01  0.7463E+02
   5.360  0.3951E+01  0.7467E+02
   5.370  0.5103E+01  0.7471E+02
   5.380  0.4169E+01  0.7477E+02
   5.390  0.3717E+01  0.7480E+02
   5.400  0.3633E+01  0.7484E+02
   5.410  0.3541E+01  0.7488E+02
   5.420  0.3501E+01  0.7491E+02
   5.430  0.3493E+01  0.7495E+02
   5.440  0.3480E+01  0.7498E+02
   5.450  0.3447E+01  0.7502E+02
   5.460  0.3444E+01  0.7505E+02
   5.470  0.3455E+01  0.7509E+02
   5.480  0.3461E+01  0.7512E+02
   5.490  0.3466E+01  0.7515E+02
   5.500  0.3466E+01  0.7519E+02
   5.510  0.3453E+01  0.7522E+02
   5.520  0.3859E+01  0.7526E+02
   5.530  0.4088E+01  0.7530E+02
   5.540  0.4149E+01  0.7534E+02
   5.550  0.4380E+01  0.7538E+02
   5.560  0.5289E+01  0.7543E+02
   5.570  0.4452E+01  0.7548E+02
   5.580  0.4364E+01  0.7552E+02
   5.590  0.4945E+01  0.7557E+02
   5.600  0.4197E+01  0.7561E+02
   5.610  0.4193E+01  0.7566E+02
   5.620  0.3800E+01  0.7570E+02
   5.630  0.4098E+01  0.7574E+02
   5.640  0.4331E+01  0.7578E+02
   5.650  0.5073E+01  0.7583E+02
   5.660  0.4077E+01  0.7588E+02
   5.670  0.4020E+01  0.7592E+02
   5.680  0.3862E+01  0.7596E+02
   5.690  0.4399E+01  0.7600E+02
   5.700  0.4062E+01  0.7604E+02
   5.710  0.4108E+01  0.7608E+02
   5.720  0.4690E+01  0.7613E+02
   5.730  0.4449E+01  0.7617E+02
   5.740  0.5360E+01  0.7623E+02
   5.750  0.4110E+01  0.7627E+02
   5.760  0.3961E+01  0.7631E+02
   5.770  0.3884E+01  0.7635E+02
   5.780  0.3817E+01  0.7639E+02
   5.790  0.3744E+01  0.7643E+02
   5.800  0.3741E+01  0.7647E+02
   5.810  0.3687E+01  0.7650E+02
   5.820  0.4709E+01  0.7654E+02
   5.830  0.3402E+01  0.7658E+02
   5.840  0.3063E+01  0.7661E+02
   5.850  0.3062E+01  0.7664E+02
   5.860  0.3054E+01  0.7667E+02
   5.870  0.3042E+01  0.7671E+02
   5.880  0.3037E+01  0.7674E+02
   5.890  0.3288E+01  0.7677E+02
   5.900  0.5947E+01  0.7681E+02
   5.910  0.5870E+01  0.7687E+02
   5.920  0.5865E+01  0.7693E+02
   5.930  0.6225E+01  0.7699E+02
   5.940  0.5563E+01  0.7704E+02
   5.950  0.5393E+01  0.7710E+02
   5.960  0.5348E+01  0.7715E+02
   5.970  0.5379E+01  0.7721E+02
   5.980  0.5506E+01  0.7726E+02
   5.990  0.5568E+01  0.7732E+02
   6.000  0.5286E+01  0.7737E+02
   6.010  0.5201E+01  0.7742E+02
   6.020  0.5109E+01  0.7747E+02
   6.030  0.5210E+01  0.7753E+02
   6.040  0.5467E+01  0.7758E+02
   6.050  0.5208E+01  0.7763E+02
   6.060  0.5091E+01  0.7769E+02
   6.070  0.4867E+01  0.7773E+02
   6.080  0.4666E+01  0.7778E+02
   6.090  0.4585E+01  0.7783E+02
   6.100  0.4505E+01  0.7787E+02
   6.110  0.4430E+01  0.7792E+02
   6.120  0.4394E+01  0.7796E+02
   6.130  0.4359E+01  0.7801E+02
   6.140  0.4284E+01  0.7805E+02
   6.150  0.4520E+01  0.7809E+02
   6.160  0.4334E+01  0.7814E+02
   6.170  0.4273E+01  0.7818E+02
   6.180  0.4153E+01  0.7822E+02
   6.190  0.4088E+01  0.7827E+02
   6.200  0.4051E+01  0.7831E+02
   6.210  0.4120E+01  0.7835E+02
   6.220  0.4181E+01  0.7839E+02
   6.230  0.3676E+01  0.7843E+02
   6.240  0.4043E+01  0.7847E+02
   6.250  0.3911E+01  0.7851E+02
   6.260  0.3910E+01  0.7855E+02
   6.270  0.3855E+01  0.7859E+02
   6.280  0.3895E+01  0.7862E+02
   6.290  0.3874E+01  0.7866E+02
   6.300  0.4022E+01  0.7870E+02
   6.310  0.4122E+01  0.7874E+02
   6.320  0.4295E+01  0.7879E+02
   6.330  0.4527E+01  0.7883E+02
   6.340  0.4368E+01  0.7887E+02
   6.350  0.4097E+01  0.7892E+02
   6.360  0.4124E+01  0.7896E+02
   6.370  0.4741E+01  0.7900E+02
   6.380  0.5000E+01  0.7905E+02
   6.390  0.6248E+01  0.7911E+02
   6.400  0.6503E+01  0.7917E+02
   6.410  0.6021E+01  0.7924E+02
   6.420  0.6341E+01  0.7930E+02
   6.430  0.6501E+01  0.7936E+02
   6.440  0.8361E+01  0.7943E+02
   6.450  0.8134E+01  0.7952E+02
   6.460  0.7669E+01  0.7960E+02
   6.470  0.6964E+01  0.7967E+02
   6.480  0.6632E+01  0.7974E+02
   6.490  0.6390E+01  0.7980E+02
   6.500  0.6266E+01  0.7987E+02
   6.510  0.6224E+01  0.7993E+02
   6.520  0.6563E+01  0.7999E+02
   6.530  0.6638E+01  0.8006E+02
   6.540  0.6937E+01  0.8013E+02
   6.550  0.6934E+01  0.8020E+02
   6.560  0.6845E+01  0.8027E+02
   6.570  0.7063E+01  0.8033E+02
   6.580  0.7392E+01  0.8041E+02
   6.590  0.7409E+01  0.8048E+02
   6.600  0.6862E+01  0.8055E+02
   6.610  0.6470E+01  0.8062E+02
   6.620  0.6392E+01  0.8068E+02
   6.630  0.6492E+01  0.8075E+02
   6.640  0.6320E+01  0.8082E+02
   6.650  0.6362E+01  0.8088E+02
   6.660  0.6645E+01  0.8094E+02
   6.670  0.8108E+01  0.8101E+02
   6.680  0.1059E+02  0.8111E+02
   6.690  0.1250E+02  0.8123E+02
   6.700  0.9692E+01  0.8134E+02
   6.710  0.8262E+01  0.8143E+02
   6.720  0.7542E+01  0.8151E+02
   6.730  0.7201E+01  0.8158E+02
   6.740  0.8840E+01  0.8166E+02
   6.750  0.6704E+01  0.8174E+02
   6.760  0.6933E+01  0.8181E+02
   6.770  0.6386E+01  0.8188E+02
   6.780  0.6618E+01  0.8194E+02
   6.790  0.6690E+01  0.8201E+02
   6.800  0.6881E+01  0.8208E+02
   6.810  0.6298E+01  0.8214E+02
   6.820  0.6373E+01  0.8220E+02
   6.830  0.6856E+01  0.8227E+02
   6.840  0.6696E+01  0.8234E+02
   6.850  0.6505E+01  0.8241E+02
   6.860  0.5810E+01  0.8247E+02
   6.870  0.5135E+01  0.8252E+02
   6.880  0.5041E+01  0.8257E+02
   6.890  0.5085E+01  0.8262E+02
   6.900  0.5244E+01  0.8267E+02
   6.910  0.5524E+01  0.8273E+02
   6.920  0.6243E+01  0.8279E+02
   6.930  0.6616E+01  0.8285E+02
   6.940  0.6617E+01  0.8292E+02
   6.950  0.6556E+01  0.8299E+02
   6.960  0.5276E+01  0.8304E+02
   6.970  0.5798E+01  0.8310E+02
   6.980  0.4891E+01  0.8315E+02
   6.990  0.4930E+01  0.8320E+02
   7.000  0.4976E+01  0.8325E+02
   7.010  0.5206E+01  0.8330E+02
   7.020  0.5381E+01  0.8335E+02
   7.030  0.5337E+01  0.8341E+02
   7.040  0.5867E+01  0.8346E+02
   7.050  0.5918E+01  0.8352E+02
   7.060  0.6466E+01  0.8358E+02
   7.070  0.7640E+01  0.8365E+02
   7.080  0.8918E+01  0.8373E+02
   7.090  0.8433E+01  0.8382E+02
   7.100  0.8013E+01  0.8390E+02
   7.110  0.8783E+01  0.8399E+02
   7.120  0.7976E+01  0.8407E+02
   7.130  0.7604E+01  0.8415E+02
   7.140  0.6828E+01  0.8422E+02
   7.150  0.6597E+01  0.8429E+02
   7.160  0.6392E+01  0.8435E+02
   7.170  0.6172E+01  0.8442E+02
   7.180  0.6672E+01  0.8448E+02
   7.190  0.5895E+01  0.8454E+02
   7.200  0.5673E+01  0.8460E+02
   7.210  0.5232E+01  0.8466E+02
   7.220  0.4916E+01  0.8471E+02
   7.230  0.4752E+01  0.8476E+02
   7.240  0.4691E+01  0.8481E+02
   7.250  0.4435E+01  0.8486E+02
   7.260  0.5024E+01  0.8490E+02
   7.270  0.4498E+01  0.8495E+02
   7.280  0.4115E+01  0.8500E+02
   7.290  0.4072E+01  0.8504E+02
   7.300  0.3937E+01  0.8508E+02
   7.310  0.3948E+01  0.8512E+02
   7.320  0.4770E+01  0.8516E+02
   7.330  0.4287E+01  0.8521E+02
   7.340  0.3422E+01  0.8524E+02
   7.350  0.4238E+01  0.8528E+02
   7.360  0.4006E+01  0.8532E+02
   7.370  0.4190E+01  0.8536E+02
   7.380  0.4922E+01  0.8540E+02
   7.390  0.5233E+01  0.8546E+02
   7.400  0.4688E+01  0.8551E+02
   7.410  0.4391E+01  0.8556E+02
   7.420  0.4514E+01  0.8560E+02
   7.430  0.4673E+01  0.8565E+02
   7.440  0.7140E+01  0.8570E+02
   7.450  0.6058E+01  0.8577E+02
   7.460  0.6304E+01  0.8583E+02
   7.470  0.5785E+01  0.8589E+02
   7.480  0.5798E+01  0.8595E+02
   7.490  0.5837E+01  0.8601E+02
   7.500  0.5947E+01  0.8607E+02
   7.510  0.5606E+01  0.8613E+02
   7.520  0.5591E+01  0.8619E+02
   7.530  0.5900E+01  0.8625E+02
   7.540  0.5127E+01  0.8630E+02
   7.550  0.5101E+01  0.8635E+02
   7.560  0.5506E+01  0.8641E+02
   7.570  0.6411E+01  0.8647E+02
   7.580  0.5730E+01  0.8653E+02
   7.590  0.6401E+01  0.8659E+02
   7.600  0.5978E+01  0.8665E+02
   7.610  0.5156E+01  0.8671E+02
   7.620  0.4889E+01  0.8676E+02
   7.630  0.5060E+01  0.8680E+02
   7.640  0.4748E+01  0.8685E+02
   7.650  0.4528E+01  0.8690E+02
   7.660  0.4421E+01  0.8694E+02
   7.670  0.3931E+01  0.8699E+02
   7.680  0.3762E+01  0.8703E+02
   7.690  0.3739E+01  0.8707E+02
   7.700  0.3760E+01  0.8710E+02
   7.710  0.3817E+01  0.8714E+02
   7.720  0.3973E+01  0.8718E+02
   7.730  0.4175E+01  0.8722E+02
   7.740  0.4393E+01  0.8726E+02
   7.750  0.4654E+01  0.8731E+02
   7.760  0.4440E+01  0.8735E+02
   7.770  0.4127E+01  0.8740E+02
   7.780  0.3791E+01  0.8744E+02
   7.790  0.3510E+01  0.8747E+02
   7.800  0.3386E+01  0.8751E+02
   7.810  0.3538E+01  0.8754E+02
   7.820  0.3721E+01  0.8758E+02
   7.830  0.4063E+01  0.8762E+02
   7.840  0.4152E+01  0.8766E+02
   7.850  0.4157E+01  0.8770E+02
   7.860  0.4405E+01  0.8774E+02
   7.870  0.5030E+01  0.8779E+02
   7.880  0.5873E+01  0.8785E+02
   7.890  0.8012E+01  0.8791E+02
   7.900  0.6842E+01  0.8799E+02
   7.910  0.6499E+01  0.8806E+02
   7.920  0.6177E+01  0.8812E+02
   7.930  0.5985E+01  0.8819E+02
   7.940  0.5992E+01  0.8825E+02
   7.950  0.5689E+01  0.8830E+02
   7.960  0.5334E+01  0.8836E+02
   7.970  0.5242E+01  0.8841E+02
   7.980  0.5118E+01  0.8846E+02
   7.990  0.5006E+01  0.8851E+02
   8.000  0.5049E+01  0.8856E+02
   8.010  0.5194E+01  0.8862E+02
   8.020  0.5323E+01  0.8867E+02
   8.030  0.5588E+01  0.8872E+02
   8.040  0.6889E+01  0.8878E+02
   8.050  0.6199E+01  0.8884E+02
   8.060  0.6004E+01  0.8891E+02
   8.070  0.6137E+01  0.8897E+02
   8.080  0.6165E+01  0.8903E+02
   8.090  0.6214E+01  0.8909E+02
   8.100  0.6311E+01  0.8916E+02
   8.110  0.6413E+01  0.8922E+02
   8.120  0.7875E+01  0.8929E+02
   8.130  0.6662E+01  0.8936E+02
   8.140  0.7048E+01  0.8943E+02
   8.150  0.6637E+01  0.8950E+02
   8.160  0.6264E+01  0.8956E+02
   8.170  0.6164E+01  0.8962E+02
   8.180  0.6206E+01  0.8969E+02
   8.190  0.7364E+01  0.8976E+02
   8.200  0.6775E+01  0.8983E+02
   8.210  0.5617E+01  0.8989E+02
   8.220  0.5616E+01  0.8994E+02
   8.230  0.5585E+01  0.9000E+02
   8.240  0.5604E+01  0.9006E+02
   8.250  0.5609E+01  0.9011E+02
   8.260  0.6109E+01  0.9017E+02
   8.270  0.7805E+01  0.9025E+02
   8.280  0.7191E+01  0.9033E+02
   8.290  0.6934E+01  0.9040E+02
   8.300  0.7218E+01  0.9047E+02
   8.310  0.7116E+01  0.9054E+02
   8.320  0.7166E+01  0.9061E+02
   8.330  0.7339E+01  0.9068E+02
   8.340  0.7602E+01  0.9076E+02
   8.350  0.8042E+01  0.9084E+02
   8.360  0.8698E+01  0.9092E+02
   8.370  0.8454E+01  0.9101E+02
   8.380  0.8600E+01  0.9109E+02
   8.390  0.9238E+01  0.9118E+02
   8.400  0.9448E+01  0.9128E+02
   8.410  0.1021E+02  0.9138E+02
   8.420  0.9482E+01  0.9148E+02
   8.430  0.7828E+01  0.9156E+02
   8.440  0.7249E+01  0.9164E+02
   8.450  0.7038E+01  0.9171E+02
   8.460  0.6535E+01  0.9178E+02
   8.470  0.6718E+01  0.9185E+02
   8.480  0.6260E+01  0.9191E+02
   8.490  0.6349E+01  0.9197E+02
   8.500  0.5452E+01  0.9204E+02
   8.510  0.5748E+01  0.9210E+02
   8.520  0.5624E+01  0.9215E+02
   8.530  0.5609E+01  0.9221E+02
   8.540  0.5893E+01  0.9227E+02
   8.550  0.6176E+01  0.9233E+02
   8.560  0.6627E+01  0.9240E+02
   8.570  0.6686E+01  0.9246E+02
   8.580  0.6906E+01  0.9253E+02
   8.590  0.6885E+01  0.9260E+02
   8.600  0.6284E+01  0.9267E+02
   8.610  0.6317E+01  0.9273E+02
   8.620  0.6288E+01  0.9280E+02
   8.630  0.6942E+01  0.9286E+02
   8.640  0.7972E+01  0.9294E+02
   8.650  0.7911E+01  0.9302E+02
   8.660  0.7191E+01  0.9309E+02
   8.670  0.7224E+01  0.9316E+02
   8.680  0.7384E+01  0.9324E+02
   8.690  0.7791E+01  0.9331E+02
   8.700  0.8564E+01  0.9339E+02
   8.710  0.9052E+01  0.9348E+02
   8.720  0.9364E+01  0.9357E+02
   8.730  0.1002E+02  0.9367E+02
   8.740  0.9206E+01  0.9377E+02
   8.750  0.9431E+01  0.9386E+02
   8.760  0.9832E+01  0.9395E+02
   8.770  0.9508E+01  0.9405E+02
   8.780  0.9406E+01  0.9415E+02
   8.790  0.8069E+01  0.9424E+02
   8.800  0.7543E+01  0.9431E+02
   8.810  0.7507E+01  0.9439E+02
   8.820  0.6492E+01  0.9446E+02
   8.830  0.6658E+01  0.9452E+02
   8.840  0.6288E+01  0.9459E+02
   8.850  0.6079E+01  0.9465E+02
   8.860  0.6061E+01  0.9471E+02
   8.870  0.6186E+01  0.9477E+02
   8.880  0.6668E+01  0.9484E+02
   8.890  0.7153E+01  0.9491E+02
   8.900  0.7049E+01  0.9498E+02
   8.910  0.6965E+01  0.9505E+02
   8.920  0.6996E+01  0.9512E+02
   8.930  0.6732E+01  0.9519E+02
   8.940  0.6621E+01  0.9526E+02
   8.950  0.6620E+01  0.9532E+02
   8.960  0.6148E+01  0.9539E+02
   8.970  0.6062E+01  0.9545E+02
   8.980  0.5864E+01  0.9551E+02
   8.990  0.6106E+01  0.9557E+02
   9.000  0.5936E+01  0.9563E+02
   9.010  0.5603E+01  0.9568E+02
   9.020  0.5633E+01  0.9574E+02
   9.030  0.5615E+01  0.9580E+02
   9.040  0.6054E+01  0.9585E+02
   9.050  0.6392E+01  0.9592E+02
   9.060  0.7203E+01  0.9598E+02
   9.070  0.7444E+01  0.9606E+02
   9.080  0.6449E+01  0.9613E+02
   9.090  0.6279E+01  0.9620E+02
   9.100  0.5939E+01  0.9626E+02
   9.110  0.5874E+01  0.9632E+02
   9.120  0.6559E+01  0.9638E+02
   9.130  0.6800E+01  0.9644E+02
   9.140  0.7747E+01  0.9653E+02
   9.150  0.6843E+01  0.9660E+02
   9.160  0.6562E+01  0.9666E+02
   9.170  0.6555E+01  0.9673E+02
   9.180  0.6631E+01  0.9680E+02
   9.190  0.7018E+01  0.9687E+02
   9.200  0.6520E+01  0.9693E+02
   9.210  0.6061E+01  0.9699E+02
   9.220  0.6057E+01  0.9705E+02
   9.230  0.6495E+01  0.9711E+02
   9.240  0.5834E+01  0.9718E+02
   9.250  0.6459E+01  0.9723E+02
   9.260  0.6882E+01  0.9730E+02
   9.270  0.7647E+01  0.9737E+02
   9.280  0.8467E+01  0.9746E+02
   9.290  0.8296E+01  0.9754E+02
   9.300  0.8402E+01  0.9763E+02
   9.310  0.8262E+01  0.9771E+02
   9.320  0.8127E+01  0.9780E+02
   9.330  0.8123E+01  0.9789E+02
   9.340  0.7513E+01  0.9796E+02
   9.350  0.9625E+01  0.9805E+02
   9.360  0.8826E+01  0.9814E+02
   9.370  0.7334E+01  0.9823E+02
   9.380  0.6755E+01  0.9830E+02
   9.390  0.6943E+01  0.9836E+02
   9.400  0.7310E+01  0.9844E+02
   9.410  0.6892E+01  0.9851E+02
   9.420  0.6817E+01  0.9858E+02
   9.430  0.6666E+01  0.9864E+02
   9.440  0.7073E+01  0.9871E+02
   9.450  0.7338E+01  0.9878E+02
   9.460  0.7685E+01  0.9886E+02
   9.470  0.7516E+01  0.9893E+02
   9.480  0.7681E+01  0.9901E+02
   9.490  0.7091E+01  0.9908E+02
   9.500  0.6588E+01  0.9915E+02
   9.510  0.6112E+01  0.9922E+02
   9.520  0.6346E+01  0.9928E+02
   9.530  0.6466E+01  0.9935E+02
   9.540  0.6655E+01  0.9942E+02
   9.550  0.6107E+01  0.9948E+02
   9.560  0.5745E+01  0.9954E+02
   9.570  0.5689E+01  0.9960E+02
   9.580  0.5848E+01  0.9966E+02
   9.590  0.6411E+01  0.9972E+02
   9.600  0.6150E+01  0.9978E+02
   9.610  0.6157E+01  0.9984E+02
   9.620  0.6186E+01  0.9991E+02
   9.630  0.6180E+01  0.9997E+02
   9.640  0.6181E+01  0.1000E+03
   9.650  0.6541E+01  0.1001E+03
   9.660  0.7002E+01  0.1002E+03
   9.670  0.7462E+01  0.1002E+03
   9.680  0.7145E+01  0.1003E+03
   9.690  0.7039E+01  0.1004E+03
   9.700  0.6623E+01  0.1004E+03
   9.710  0.6638E+01  0.1005E+03
   9.720  0.6668E+01  0.1006E+03
   9.730  0.6478E+01  0.1006E+03
   9.740  0.6551E+01  0.1007E+03
   9.750  0.6342E+01  0.1008E+03
   9.760  0.6201E+01  0.1008E+03
   9.770  0.6110E+01  0.1009E+03
   9.780  0.6561E+01  0.1010E+03
   9.790  0.7108E+01  0.1010E+03
   9.800  0.7607E+01  0.1011E+03
   9.810  0.7787E+01  0.1012E+03
   9.820  0.7412E+01  0.1013E+03
   9.830  0.8128E+01  0.1013E+03
   9.840  0.7678E+01  0.1014E+03
   9.850  0.7194E+01  0.1015E+03
   9.860  0.6999E+01  0.1016E+03
   9.870  0.6616E+01  0.1016E+03
   9.880  0.7181E+01  0.1017E+03
   9.890  0.7405E+01  0.1018E+03
   9.900  0.7557E+01  0.1019E+03
   9.910  0.7616E+01  0.1019E+03
   9.920  0.7801E+01  0.1020E+03
   9.930  0.8093E+01  0.1021E+03
   9.940  0.9089E+01  0.1022E+03
   9.950  0.9316E+01  0.1023E+03
   9.960  0.9169E+01  0.1024E+03
   9.970  0.9153E+01  0.1025E+03
   9.980  0.9570E+01  0.1025E+03
   9.990  0.9582E+01  0.1026E+03
  10.000  0.9878E+01  0.1027E+03
  10.010  0.9635E+01  0.1028E+03
  10.020  0.9943E+01  0.1029E+03
  10.030  0.1039E+02  0.1030E+03
  10.040  0.9803E+01  0.1031E+03
  10.050  0.9532E+01  0.1032E+03
  10.060  0.9218E+01  0.1033E+03
  10.070  0.8735E+01  0.1034E+03
  10.080  0.8268E+01  0.1035E+03
  10.090  0.8001E+01  0.1036E+03
  10.100  0.8119E+01  0.1037E+03
  10.110  0.8649E+01  0.1038E+03
  10.120  0.8675E+01  0.1038E+03
  10.130  0.8653E+01  0.1039E+03
  10.140  0.8685E+01  0.1040E+03
  10.150  0.8715E+01  0.1041E+03
  10.160  0.8999E+01  0.1042E+03
  10.170  0.8483E+01  0.1043E+03
  10.180  0.8222E+01  0.1044E+03
  10.190  0.7300E+01  0.1044E+03
  10.200  0.7494E+01  0.1045E+03
  10.210  0.7613E+01  0.1046E+03
  10.220  0.6467E+01  0.1047E+03
  10.230  0.6704E+01  0.1047E+03
  10.240  0.6786E+01  0.1048E+03
  10.250  0.6601E+01  0.1049E+03
  10.260  0.7973E+01  0.1049E+03
  10.270  0.6252E+01  0.1050E+03
  10.280  0.7263E+01  0.1051E+03
  10.290  0.5864E+01  0.1051E+03
  10.300  0.5935E+01  0.1052E+03
  10.310  0.6250E+01  0.1053E+03
  10.320  0.5986E+01  0.1053E+03
  10.330  0.6178E+01  0.1054E+03
  10.340  0.7212E+01  0.1055E+03
  10.350  0.7702E+01  0.1055E+03
  10.360  0.8048E+01  0.1056E+03
  10.370  0.8324E+01  0.1057E+03
  10.380  0.8138E+01  0.1058E+03
  10.390  0.8228E+01  0.1059E+03
  10.400  0.8082E+01  0.1059E+03
  10.410  0.8019E+01  0.1060E+03
  10.420  0.8133E+01  0.1061E+03
  10.430  0.7761E+01  0.1062E+03
  10.440  0.7626E+01  0.1063E+03
  10.450  0.7686E+01  0.1063E+03
  10.460  0.8383E+01  0.1064E+03
  10.470  0.8369E+01  0.1065E+03
  10.480  0.8227E+01  0.1066E+03
  10.490  0.8357E+01  0.1067E+03
  10.500  0.8335E+01  0.1068E+03
  10.510  0.8714E+01  0.1068E+03
  10.520  0.8641E+01  0.1069E+03
  10.530  0.8367E+01  0.1070E+03
  10.540  0.8365E+01  0.1071E+03
  10.550  0.9476E+01  0.1072E+03
  10.560  0.8383E+01  0.1073E+03
  10.570  0.8631E+01  0.1074E+03
  10.580  0.9135E+01  0.1075E+03
  10.590  0.8962E+01  0.1076E+03
  10.600  0.7963E+01  0.1076E+03
  10.610  0.8170E+01  0.1077E+03
  10.620  0.8769E+01  0.1078E+03
  10.630  0.8869E+01  0.1079E+03
  10.640  0.8477E+01  0.1080E+03
  10.650  0.8846E+01  0.1081E+03
  10.660  0.8182E+01  0.1081E+03
  10.670  0.8111E+01  0.1082E+03
  10.680  0.8384E+01  0.1083E+03
  10.690  0.7329E+01  0.1084E+03
  10.700  0.7038E+01  0.1085E+03
  10.710  0.6799E+01  0.1085E+03
  10.720  0.6622E+01  0.1086E+03
  10.730  0.6442E+01  0.1087E+03
  10.740  0.6007E+01  0.1087E+03
  10.750  0.6046E+01  0.1088E+03
  10.760  0.6173E+01  0.1088E+03
  10.770  0.5914E+01  0.1089E+03
  10.780  0.6063E+01  0.1090E+03
  10.790  0.6266E+01  0.1090E+03
  10.800  0.6158E+01  0.1091E+03
  10.810  0.7114E+01  0.1092E+03
  10.820  0.7353E+01  0.1092E+03
  10.830  0.6897E+01  0.1093E+03
  10.840  0.7057E+01  0.1094E+03
  10.850  0.7377E+01  0.1094E+03
  10.860  0.7387E+01  0.1095E+03
  10.870  0.7643E+01  0.1096E+03
  10.880  0.7499E+01  0.1097E+03
  10.890  0.7413E+01  0.1097E+03
  10.900  0.7036E+01  0.1098E+03
  10.910  0.7447E+01  0.1099E+03
  10.920  0.7355E+01  0.1100E+03
  10.930  0.7586E+01  0.1100E+03
  10.940  0.7841E+01  0.1101E+03
  10.950  0.7779E+01  0.1102E+03
  10.960  0.7877E+01  0.1103E+03
  10.970  0.8082E+01  0.1103E+03
  10.980  0.8411E+01  0.1104E+03
  10.990  0.8354E+01  0.1105E+03
  11.000  0.7749E+01  0.1106E+03
  11.010  0.7697E+01  0.1107E+03
  11.020  0.8686E+01  0.1108E+03
  11.030  0.9039E+01  0.1108E+03
  11.040  0.8426E+01  0.1109E+03
  11.050  0.8626E+01  0.1110E+03
  11.060  0.9004E+01  0.1111E+03
  11.070  0.8277E+01  0.1112E+03
  11.080  0.7991E+01  0.1113E+03
  11.090  0.7628E+01  0.1113E+03
  11.100  0.7759E+01  0.1114E+03
  11.110  0.8266E+01  0.1115E+03
  11.120  0.8315E+01  0.1116E+03
  11.130  0.8480E+01  0.1117E+03
  11.140  0.7966E+01  0.1117E+03
  11.150  0.8252E+01  0.1118E+03
  11.160  0.7538E+01  0.1119E+03
  11.170  0.7052E+01  0.1120E+03
  11.180  0.6670E+01  0.1120E+03
  11.190  0.6373E+01  0.1121E+03
  11.200  0.6540E+01  0.1122E+03
  11.210  0.6800E+01  0.1122E+03
  11.220  0.6551E+01  0.1123E+03
  11.230  0.6262E+01  0.1124E+03
  11.240  0.6125E+01  0.1124E+03
  11.250  0.6220E+01  0.1125E+03
  11.260  0.6430E+01  0.1126E+03
  11.270  0.6806E+01  0.1126E+03
  11.280  0.6788E+01  0.1127E+03
  11.290  0.7332E+01  0.1128E+03
  11.300  0.8428E+01  0.1128E+03
  11.310  0.8096E+01  0.1129E+03
  11.320  0.7777E+01  0.1130E+03
  11.330  0.7642E+01  0.1131E+03
  11.340  0.7657E+01  0.1132E+03
  11.350  0.7618E+01  0.1132E+03
  11.360  0.7925E+01  0.1133E+03
  11.370  0.8415E+01  0.1134E+03
  11.380  0.9149E+01  0.1135E+03
  11.390  0.9569E+01  0.1136E+03
  11.400  0.9923E+01  0.1137E+03
  11.410  0.1018E+02  0.1138E+03
  11.420  0.1027E+02  0.1139E+03
  11.430  0.1096E+02  0.1140E+03
  11.440  0.1160E+02  0.1141E+03
  11.450  0.1120E+02  0.1142E+03
  11.460  0.1027E+02  0.1143E+03
  11.470  0.1002E+02  0.1144E+03
  11.480  0.1000E+02  0.1145E+03
  11.490  0.9394E+01  0.1146E+03
  11.500  0.9292E+01  0.1147E+03
  11.510  0.8619E+01  0.1148E+03
  11.520  0.7439E+01  0.1149E+03
  11.530  0.7319E+01  0.1150E+03
  11.540  0.7377E+01  0.1150E+03
  11.550  0.7584E+01  0.1151E+03
  11.560  0.6906E+01  0.1152E+03
  11.570  0.6248E+01  0.1152E+03
  11.580  0.6291E+01  0.1153E+03
  11.590  0.6389E+01  0.1154E+03
  11.600  0.6371E+01  0.1154E+03
  11.610  0.6301E+01  0.1155E+03
  11.620  0.6517E+01  0.1156E+03
  11.630  0.6465E+01  0.1156E+03
  11.640  0.6167E+01  0.1157E+03
  11.650  0.6182E+01  0.1158E+03
  11.660  0.6174E+01  0.1158E+03
  11.670  0.6325E+01  0.1159E+03
  11.680  0.6318E+01  0.1159E+03
  11.690  0.6468E+01  0.1160E+03
  11.700  0.6595E+01  0.1161E+03
  11.710  0.6708E+01  0.1161E+03
  11.720  0.6781E+01  0.1162E+03
  11.730  0.7251E+01  0.1163E+03
  11.740  0.7249E+01  0.1164E+03
  11.750  0.7280E+01  0.1164E+03
  11.760  0.8400E+01  0.1165E+03
  11.770  0.6913E+01  0.1166E+03
  11.780  0.6818E+01  0.1166E+03
  11.790  0.6872E+01  0.1167E+03
  11.800  0.6358E+01  0.1168E+03
  11.810  0.6228E+01  0.1169E+03
  11.820  0.6430E+01  0.1169E+03
  11.830  0.6429E+01  0.1170E+03
  11.840  0.6530E+01  0.1171E+03
  11.850  0.6415E+01  0.1171E+03
  11.860  0.6289E+01  0.1172E+03
  11.870  0.6648E+01  0.1172E+03
  11.880  0.6097E+01  0.1173E+03
  11.890  0.6016E+01  0.1174E+03
  11.900  0.5634E+01  0.1174E+03
  11.910  0.6391E+01  0.1175E+03
  11.920  0.5902E+01  0.1176E+03
  11.930  0.5712E+01  0.1176E+03
  11.940  0.5757E+01  0.1177E+03
  11.950  0.5248E+01  0.1177E+03
  11.960  0.5405E+01  0.1178E+03
  11.970  0.5109E+01  0.1178E+03
  11.980  0.5114E+01  0.1179E+03
  11.990  0.5376E+01  0.1179E+03
  12.000  0.5397E+01  0.1180E+03
  12.010  0.5704E+01  0.1180E+03
  12.020  0.5539E+01  0.1181E+03
  12.030  0.5552E+01  0.1182E+03
  12.040  0.5578E+01  0.1182E+03
  12.050  0.5162E+01  0.1183E+03
  12.060  0.4997E+01  0.1183E+03
  12.070  0.4782E+01  0.1184E+03
  12.080  0.4513E+01  0.1184E+03
  12.090  0.4568E+01  0.1185E+03
  12.100  0.4898E+01  0.1185E+03
  12.110  0.5590E+01  0.1186E+03
  12.120  0.5053E+01  0.1186E+03
  12.130  0.4681E+01  0.1187E+03
  12.140  0.4792E+01  0.1187E+03
  12.150  0.4745E+01  0.1188E+03
  12.160  0.4689E+01  0.1188E+03
  12.170  0.4949E+01  0.1189E+03
  12.180  0.4368E+01  0.1189E+03
  12.190  0.4031E+01  0.1189E+03
  12.200  0.3809E+01  0.1190E+03
  12.210  0.3731E+01  0.1190E+03
  12.220  0.3582E+01  0.1191E+03
  12.230  0.3320E+01  0.1191E+03
  12.240  0.3148E+01  0.1191E+03
  12.250  0.2878E+01  0.1192E+03
  12.260  0.2760E+01  0.1192E+03
  12.270  0.2686E+01  0.1192E+03
  12.280  0.2686E+01  0.1192E+03
  12.290  0.2868E+01  0.1193E+03
  12.300  0.2949E+01  0.1193E+03
  12.310  0.3034E+01  0.1193E+03
  12.320  0.3251E+01  0.1194E+03
  12.330  0.3181E+01  0.1194E+03
  12.340  0.2891E+01  0.1194E+03
  12.350  0.2866E+01  0.1194E+03
  12.360  0.2460E+01  0.1195E+03
  12.370  0.2304E+01  0.1195E+03
  12.380  0.2276E+01  0.1195E+03
  12.390  0.2227E+01  0.1195E+03
  12.400  0.2167E+01  0.1196E+03
  12.410  0.1952E+01  0.1196E+03
  12.420  0.1871E+01  0.1196E+03
  12.430  0.1713E+01  0.1196E+03
  12.440  0.1658E+01  0.1196E+03
  12.450  0.2052E+01  0.1197E+03
  12.460  0.1850E+01  0.1197E+03
  12.470  0.1841E+01  0.1197E+03
  12.480  0.1731E+01  0.1197E+03
  12.490  0.1675E+01  0.1197E+03
  12.500  0.1561E+01  0.1197E+03
  12.510  0.1366E+01  0.1198E+03
  12.520  0.1243E+01  0.1198E+03
  12.530  0.1195E+01  0.1198E+03
  12.540  0.1180E+01  0.1198E+03
  12.550  0.1176E+01  0.1198E+03
  12.560  0.1173E+01  0.1198E+03
  12.570  0.1175E+01  0.1198E+03
  12.580  0.1091E+01  0.1199E+03
  12.590  0.9492E+00  0.1199E+03
  12.600  0.1011E+01  0.1199E+03
  12.610  0.9084E+00  0.1199E+03
  12.620  0.8243E+00  0.1199E+03
  12.630  0.1056E+01  0.1199E+03
  12.640  0.8898E+00  0.1199E+03
  12.650  0.8666E+00  0.1199E+03
  12.660  0.8272E+00  0.1199E+03
  12.670  0.7335E+00  0.1199E+03
  12.680  0.6561E+00  0.1199E+03
  12.690  0.6015E+00  0.1199E+03
  12.700  0.5469E+00  0.1200E+03
  12.710  0.4290E+00  0.1200E+03
  12.720  0.4089E+00  0.1200E+03
  12.730  0.3888E+00  0.1200E+03
  12.740  0.3163E+00  0.1200E+03
  12.750  0.4452E+00  0.1200E+03
  12.760  0.4254E+00  0.1200E+03
  12.770  0.3123E+00  0.1200E+03
  12.780  0.3020E+00  0.1200E+03
  12.790  0.2834E+00  0.1200E+03
  12.800  0.2648E+00  0.1200E+03
  12.810  0.2462E+00  0.1200E+03
  12.820  0.3557E+00  0.1200E+03
  12.830  0.2939E+00  0.1200E+03
  12.840  0.1069E+00  0.1200E+03
  12.850  0.9826E-01  0.1200E+03
  12.860  0.0000E+00  0.1200E+03
  12.870  0.0000E+00  0.1200E+03
  12.880  0.0000E+00  0.1200E+03
  12.890  0.0000E+00  0.1200E+03
  12.900  0.0000E+00  0.1200E+03
  12.910  0.0000E+00  0.1200E+03
  12.920  0.0000E+00  0.1200E+03
  12.930  0.0000E+00  0.1200E+03
  12.940  0.0000E+00  0.1200E+03
  12.950  0.0000E+00  0.1200E+03
  12.960  0.0000E+00  0.1200E+03
  12.970  0.0000E+00  0.1200E+03
  12.980  0.0000E+00  0.1200E+03
  12.990  0.0000E+00  0.1200E+03
  13.000  0.0000E+00  0.1200E+03
  13.010  0.0000E+00  0.1200E+03
  13.020  0.0000E+00  0.1200E+03
  13.030  0.0000E+00  0.1200E+03
  13.040  0.0000E+00  0.1200E+03
  13.050  0.0000E+00  0.1200E+03
  13.060  0.0000E+00  0.1200E+03
  13.070  0.0000E+00  0.1200E+03
  13.080  0.0000E+00  0.1200E+03
  13.090  0.0000E+00  0.1200E+03
  13.100  0.0000E+00  0.1200E+03
  13.110  0.0000E+00  0.1200E+03
  13.120  0.0000E+00  0.1200E+03
  13.130  0.0000E+00  0.1200E+03
  13.140  0.0000E+00  0.1200E+03
  13.150  0.0000E+00  0.1200E+03
  13.160  0.0000E+00  0.1200E+03
  13.170  0.0000E+00  0.1200E+03
  13.180  0.0000E+00  0.1200E+03
  13.190  0.0000E+00  0.1200E+03
  13.200  0.0000E+00  0.1200E+03
  13.210  0.0000E+00  0.1200E+03
  13.220  0.0000E+00  0.1200E+03
  13.230  0.0000E+00  0.1200E+03
  13.240  0.0000E+00  0.1200E+03
  13.250  0.0000E+00  0.1200E+03
  13.260  0.0000E+00  0.1200E+03
  13.270  0.0000E+00  0.1200E+03
  13.280  0.0000E+00  0.1200E+03
  13.290  0.0000E+00  0.1200E+03
  13.300  0.0000E+00  0.1200E+03
  13.310  0.0000E+00  0.1200E+03
  13.320  0.0000E+00  0.1200E+03
  13.330  0.0000E+00  0.1200E+03
  13.340  0.0000E+00  0.1200E+03
  13.350  0.0000E+00  0.1200E+03
  13.360  0.0000E+00  0.1200E+03
  13.370  0.0000E+00  0.1200E+03
  13.380  0.0000E+00  0.1200E+03
  13.390  0.0000E+00  0.1200E+03
  13.400  0.0000E+00  0.1200E+03
  13.410  0.0000E+00  0.1200E+03
  13.420  0.0000E+00  0.1200E+03
  13.430  0.0000E+00  0.1200E+03
  13.440  0.0000E+00  0.1200E+03
  13.450  0.0000E+00  0.1200E+03
  13.460  0.0000E+00  0.1200E+03
  13.470  0.0000E+00  0.1200E+03
  13.480  0.0000E+00  0.1200E+03
  13.490  0.0000E+00  0.1200E+03
  13.500  0.0000E+00  0.1200E+03
  13.510  0.0000E+00  0.1200E+03
  13.520  0.0000E+00  0.1200E+03
  13.530  0.0000E+00  0.1200E+03
  13.540  0.0000E+00  0.1200E+03
  13.550  0.0000E+00  0.1200E+03
  13.560  0.0000E+00  0.1200E+03
  13.570  0.0000E+00  0.1200E+03
  13.580  0.0000E+00  0.1200E+03
  13.590  0.0000E+00  0.1200E+03
  13.600  0.0000E+00  0.1200E+03
  13.610  0.0000E+00  0.1200E+03
  13.620  0.0000E+00  0.1200E+03
  13.630  0.0000E+00  0.1200E+03
  13.640  0.0000E+00  0.1200E+03
  13.650  0.0000E+00  0.1200E+03
  13.660  0.0000E+00  0.1200E+03
  13.670  0.0000E+00  0.1200E+03
  13.680  0.0000E+00  0.1200E+03
  13.690  0.0000E+00  0.1200E+03
  13.700  0.0000E+00  0.1200E+03
  13.710  0.0000E+00  0.1200E+03
  13.720  0.0000E+00  0.1200E+03
  13.730  0.0000E+00  0.1200E+03
  13.740  0.0000E+00  0.1200E+03
  13.750  0.0000E+00  0.1200E+03
  13.760  0.0000E+00  0.1200E+03
  13.770  0.0000E+00  0.1200E+03
  13.780  0.0000E+00  0.1200E+03
  13.790  0.0000E+00  0.1200E+03
  13.800  0.0000E+00  0.1200E+03
  13.810  0.0000E+00  0.1200E+03
  13.820  0.0000E+00  0.1200E+03
  13.830  0.0000E+00  0.1200E+03
  13.840  0.0000E+00  0.1200E+03
  13.850  0.0000E+00  0.1200E+03
  13.860  0.0000E+00  0.1200E+03
  13.870  0.0000E+00  0.1200E+03
  13.880  0.0000E+00  0.1200E+03
  13.890  0.0000E+00  0.1200E+03
  13.900  0.0000E+00  0.1200E+03
  13.910  0.0000E+00  0.1200E+03
  13.920  0.0000E+00  0.1200E+03
  13.930  0.0000E+00  0.1200E+03
  13.940  0.0000E+00  0.1200E+03
  13.950  0.0000E+00  0.1200E+03
  13.960  0.0000E+00  0.1200E+03
  13.970  0.0000E+00  0.1200E+03
  13.980  0.0000E+00  0.1200E+03
  13.990  0.0000E+00  0.1200E+03
  14.000  0.0000E+00  0.1200E+03
  14.010  0.0000E+00  0.1200E+03
  14.020  0.0000E+00  0.1200E+03
  14.030  0.0000E+00  0.1200E+03
  14.040  0.0000E+00  0.1200E+03
  14.050  0.0000E+00  0.1200E+03
  14.060  0.0000E+00  0.1200E+03
  14.070  0.0000E+00  0.1200E+03
  14.080  0.0000E+00  0.1200E+03
  14.090  0.0000E+00  0.1200E+03
  14.100  0.0000E+00  0.1200E+03
  14.110  0.0000E+00  0.1200E+03
  14.120  0.0000E+00  0.1200E+03
  14.130  0.0000E+00  0.1200E+03
  14.140  0.0000E+00  0.1200E+03
  14.150  0.0000E+00  0.1200E+03
  14.160  0.0000E+00  0.1200E+03
  14.170  0.0000E+00  0.1200E+03
  14.180  0.0000E+00  0.1200E+03
  14.190  0.0000E+00  0.1200E+03
  14.200  0.0000E+00  0.1200E+03
  14.210  0.0000E+00  0.1200E+03
  14.220  0.0000E+00  0.1200E+03
  14.230  0.0000E+00  0.1200E+03
  14.240  0.0000E+00  0.1200E+03
  14.250  0.0000E+00  0.1200E+03
  14.260  0.0000E+00  0.1200E+03
  14.270  0.0000E+00  0.1200E+03
  14.280  0.0000E+00  0.1200E+03
  14.290  0.0000E+00  0.1200E+03
  14.300  0.0000E+00  0.1200E+03
  14.310  0.0000E+00  0.1200E+03
  14.320  0.0000E+00  0.1200E+03
  14.330  0.0000E+00  0.1200E+03
  14.340  0.0000E+00  0.1200E+03
  14.350  0.0000E+00  0.1200E+03
  14.360  0.0000E+00  0.1200E+03
  14.370  0.0000E+00  0.1200E+03
  14.380  0.0000E+00  0.1200E+03
  14.390  0.0000E+00  0.1200E+03
  14.400  0.0000E+00  0.1200E+03
  14.410  0.0000E+00  0.1200E+03
  14.420  0.0000E+00  0.1200E+03
  14.430  0.0000E+00  0.1200E+03
  14.440  0.0000E+00  0.1200E+03
  14.450  0.0000E+00  0.1200E+03
  14.460  0.0000E+00  0.1200E+03
  14.470  0.0000E+00  0.1200E+03
  14.480  0.0000E+00  0.1200E+03
  14.490  0.0000E+00  0.1200E+03
  14.500  0.0000E+00  0.1200E+03
  14.510  0.0000E+00  0.1200E+03
  14.520  0.0000E+00  0.1200E+03
  14.530  0.0000E+00  0.1200E+03
  14.540  0.0000E+00  0.1200E+03
  14.550  0.0000E+00  0.1200E+03
  14.560  0.0000E+00  0.1200E+03
  14.570  0.0000E+00  0.1200E+03
  14.580  0.0000E+00  0.1200E+03
  14.590  0.0000E+00  0.1200E+03
  14.600  0.0000E+00  0.1200E+03
  14.610  0.0000E+00  0.1200E+03
  14.620  0.0000E+00  0.1200E+03
  14.630  0.0000E+00  0.1200E+03
  14.640  0.0000E+00  0.1200E+03
  14.650  0.0000E+00  0.1200E+03
  14.660  0.0000E+00  0.1200E+03
  14.670  0.0000E+00  0.1200E+03
  14.680  0.0000E+00  0.1200E+03
  14.690  0.0000E+00  0.1200E+03
  14.700  0.0000E+00  0.1200E+03
  14.710  0.0000E+00  0.1200E+03
  14.720  0.0000E+00  0.1200E+03
  14.730  0.0000E+00  0.1200E+03
  14.740  0.0000E+00  0.1200E+03
  14.750  0.0000E+00  0.1200E+03
  14.760  0.0000E+00  0.1200E+03
  14.770  0.0000E+00  0.1200E+03
  14.780  0.0000E+00  0.1200E+03
  14.790  0.0000E+00  0.1200E+03
  14.800  0.0000E+00  0.1200E+03
  14.810  0.0000E+00  0.1200E+03
  14.820  0.0000E+00  0.1200E+03
  14.830  0.0000E+00  0.1200E+03
  14.840  0.0000E+00  0.1200E+03
  14.850  0.0000E+00  0.1200E+03
  14.860  0.0000E+00  0.1200E+03
  14.870  0.0000E+00  0.1200E+03
  14.880  0.0000E+00  0.1200E+03
  14.890  0.0000E+00  0.1200E+03
  14.900  0.0000E+00  0.1200E+03
  14.910  0.0000E+00  0.1200E+03
  14.920  0.0000E+00  0.1200E+03
  14.930  0.0000E+00  0.1200E+03
  14.940  0.0000E+00  0.1200E+03
  14.950  0.0000E+00  0.1200E+03
  14.960  0.0000E+00  0.1200E+03
  14.970  0.0000E+00  0.1200E+03
  14.980  0.0000E+00  0.1200E+03
  14.990  0.0000E+00  0.1200E+03
  15.000  0.0000E+00  0.1200E+03
  15.010  0.0000E+00  0.1200E+03
  15.020  0.0000E+00  0.1200E+03
  15.030  0.0000E+00  0.1200E+03
  15.040  0.0000E+00  0.1200E+03
  15.050  0.0000E+00  0.1200E+03
  15.060  0.0000E+00  0.1200E+03
  15.070  0.0000E+00  0.1200E+03
  15.080  0.0000E+00  0.1200E+03
  15.090  0.0000E+00  0.1200E+03
  15.100  0.0000E+00  0.1200E+03
  15.110  0.0000E+00  0.1200E+03
  15.120  0.0000E+00  0.1200E+03
  15.130  0.0000E+00  0.1200E+03
  15.140  0.0000E+00  0.1200E+03
  15.150  0.0000E+00  0.1200E+03
  15.160  0.0000E+00  0.1200E+03
  15.170  0.0000E+00  0.1200E+03
  15.180  0.0000E+00  0.1200E+03
  15.190  0.0000E+00  0.1200E+03
  15.200  0.0000E+00  0.1200E+03
  15.210  0.0000E+00  0.1200E+03
  15.220  0.0000E+00  0.1200E+03
  15.230  0.0000E+00  0.1200E+03
  15.240  0.0000E+00  0.1200E+03
  15.250  0.0000E+00  0.1200E+03
  15.260  0.0000E+00  0.1200E+03
  15.270  0.0000E+00  0.1200E+03
  15.280  0.0000E+00  0.1200E+03
  15.290  0.0000E+00  0.1200E+03
  15.300  0.0000E+00  0.1200E+03
  15.310  0.0000E+00  0.1200E+03
  15.320  0.0000E+00  0.1200E+03
  15.330  0.0000E+00  0.1200E+03
  15.340  0.0000E+00  0.1200E+03
  15.350  0.0000E+00  0.1200E+03
  15.360  0.0000E+00  0.1200E+03
  15.370  0.0000E+00  0.1200E+03
  15.380  0.0000E+00  0.1200E+03
  15.390  0.0000E+00  0.1200E+03
  15.400  0.0000E+00  0.1200E+03
  15.410  0.0000E+00  0.1200E+03
  15.420  0.0000E+00  0.1200E+03
  15.430  0.0000E+00  0.1200E+03
  15.440  0.0000E+00  0.1200E+03
  15.450  0.0000E+00  0.1200E+03
  15.460  0.0000E+00  0.1200E+03
  15.470  0.0000E+00  0.1200E+03
  15.480  0.0000E+00  0.1200E+03
  15.490  0.0000E+00  0.1200E+03
  15.500  0.0000E+00  0.1200E+03
  15.510  0.0000E+00  0.1200E+03
  15.520  0.0000E+00  0.1200E+03
  15.530  0.0000E+00  0.1200E+03
  15.540  0.0000E+00  0.1200E+03
  15.550  0.0000E+00  0.1200E+03
  15.560  0.0000E+00  0.1200E+03
  15.570  0.0000E+00  0.1200E+03
  15.580  0.0000E+00  0.1200E+03
  15.590  0.0000E+00  0.1200E+03
  15.600  0.0000E+00  0.1200E+03
  15.610  0.0000E+00  0.1200E+03
  15.620  0.0000E+00  0.1200E+03
  15.630  0.0000E+00  0.1200E+03
  15.640  0.0000E+00  0.1200E+03
  15.650  0.0000E+00  0.1200E+03
  15.660  0.0000E+00  0.1200E+03
  15.670  0.0000E+00  0.1200E+03
  15.680  0.0000E+00  0.1200E+03
  15.690  0.0000E+00  0.1200E+03
  15.700  0.0000E+00  0.1200E+03
  15.710  0.0000E+00  0.1200E+03
  15.720  0.0000E+00  0.1200E+03
  15.730  0.0000E+00  0.1200E+03
  15.740  0.0000E+00  0.1200E+03
  15.750  0.0000E+00  0.1200E+03
  15.760  0.0000E+00  0.1200E+03
  15.770  0.0000E+00  0.1200E+03
  15.780  0.0000E+00  0.1200E+03
  15.790  0.0000E+00  0.1200E+03
  15.800  0.0000E+00  0.1200E+03
  15.810  0.0000E+00  0.1200E+03
  15.820  0.0000E+00  0.1200E+03
  15.830  0.0000E+00  0.1200E+03
  15.840  0.0000E+00  0.1200E+03
  15.850  0.0000E+00  0.1200E+03
  15.860  0.0000E+00  0.1200E+03
  15.870  0.0000E+00  0.1200E+03
  15.880  0.0000E+00  0.1200E+03
  15.890  0.0000E+00  0.1200E+03
  15.900  0.0000E+00  0.1200E+03
  15.910  0.0000E+00  0.1200E+03
  15.920  0.0000E+00  0.1200E+03
  15.930  0.0000E+00  0.1200E+03
  15.940  0.0000E+00  0.1200E+03
  15.950  0.0000E+00  0.1200E+03
  15.960  0.0000E+00  0.1200E+03
  15.970  0.0000E+00  0.1200E+03
  15.980  0.0000E+00  0.1200E+03
  15.990  0.0000E+00  0.1200E+03
  16.000  0.0000E+00  0.1200E+03
  16.010  0.0000E+00  0.1200E+03
  16.020  0.0000E+00  0.1200E+03
  16.030  0.0000E+00  0.1200E+03
  16.040  0.0000E+00  0.1200E+03
  16.050  0.0000E+00  0.1200E+03
  16.060  0.0000E+00  0.1200E+03
  16.070  0.0000E+00  0.1200E+03
  16.080  0.0000E+00  0.1200E+03
  16.090  0.0000E+00  0.1200E+03
  16.100  0.0000E+00  0.1200E+03
  16.110  0.0000E+00  0.1200E+03
  16.120  0.0000E+00  0.1200E+03
  16.130  0.0000E+00  0.1200E+03
  16.140  0.0000E+00  0.1200E+03
  16.150  0.0000E+00  0.1200E+03
  16.160  0.0000E+00  0.1200E+03
  16.170  0.0000E+00  0.1200E+03
  16.180  0.0000E+00  0.1200E+03
  16.190  0.0000E+00  0.1200E+03
  16.200  0.0000E+00  0.1200E+03
  16.210  0.0000E+00  0.1200E+03
  16.220  0.0000E+00  0.1200E+03
  16.230  0.0000E+00  0.1200E+03
  16.240  0.0000E+00  0.1200E+03
  16.250  0.0000E+00  0.1200E+03
  16.260  0.0000E+00  0.1200E+03
  16.270  0.0000E+00  0.1200E+03
  16.280  0.0000E+00  0.1200E+03
  16.290  0.0000E+00  0.1200E+03
  16.300  0.0000E+00  0.1200E+03
  16.310  0.0000E+00  0.1200E+03
  16.320  0.0000E+00  0.1200E+03
  16.330  0.0000E+00  0.1200E+03
  16.340  0.0000E+00  0.1200E+03
  16.350  0.0000E+00  0.1200E+03
  16.360  0.0000E+00  0.1200E+03
  16.370  0.0000E+00  0.1200E+03
  16.380  0.0000E+00  0.1200E+03
  16.390  0.0000E+00  0.1200E+03
  16.400  0.0000E+00  0.1200E+03
  16.410  0.0000E+00  0.1200E+03
  16.420  0.0000E+00  0.1200E+03
  16.430  0.0000E+00  0.1200E+03
  16.440  0.0000E+00  0.1200E+03
  16.450  0.0000E+00  0.1200E+03
  16.460  0.0000E+00  0.1200E+03
  16.470  0.0000E+00  0.1200E+03
  16.480  0.0000E+00  0.1200E+03
  16.490  0.0000E+00  0.1200E+03
  16.500  0.0000E+00  0.1200E+03
  16.510  0.0000E+00  0.1200E+03
  16.520  0.0000E+00  0.1200E+03
  16.530  0.0000E+00  0.1200E+03
  16.540  0.0000E+00  0.1200E+03
  16.550  0.0000E+00  0.1200E+03
  16.560  0.0000E+00  0.1200E+03
  16.570  0.0000E+00  0.1200E+03
  16.580  0.0000E+00  0.1200E+03
  16.590  0.0000E+00  0.1200E+03
  16.600  0.0000E+00  0.1200E+03
  16.610  0.0000E+00  0.1200E+03
  16.620  0.0000E+00  0.1200E+03
  16.630  0.0000E+00  0.1200E+03
  16.640  0.0000E+00  0.1200E+03
  16.650  0.0000E+00  0.1200E+03
  16.660  0.0000E+00  0.1200E+03
  16.670  0.0000E+00  0.1200E+03
  16.680  0.0000E+00  0.1200E+03
  16.690  0.0000E+00  0.1200E+03
  16.700  0.0000E+00  0.1200E+03
  16.710  0.0000E+00  0.1200E+03
  16.720  0.0000E+00  0.1200E+03
  16.730  0.0000E+00  0.1200E+03
  16.740  0.0000E+00  0.1200E+03
  16.750  0.0000E+00  0.1200E+03
  16.760  0.0000E+00  0.1200E+03
  16.770  0.0000E+00  0.1200E+03
  16.780  0.0000E+00  0.1200E+03
  16.790  0.0000E+00  0.1200E+03
  16.800  0.0000E+00  0.1200E+03
  16.810  0.0000E+00  0.1200E+03
  16.820  0.0000E+00  0.1200E+03
  16.830  0.0000E+00  0.1200E+03
  16.840  0.0000E+00  0.1200E+03
  16.850  0.0000E+00  0.1200E+03
  16.860  0.0000E+00  0.1200E+03
  16.870  0.0000E+00  0.1200E+03
  16.880  0.0000E+00  0.1200E+03
  16.890  0.0000E+00  0.1200E+03
  16.900  0.0000E+00  0.1200E+03
  16.910  0.0000E+00  0.1200E+03
  16.920  0.0000E+00  0.1200E+03
  16.930  0.0000E+00  0.1200E+03
  16.940  0.0000E+00  0.1200E+03
  16.950  0.0000E+00  0.1200E+03
  16.960  0.0000E+00  0.1200E+03
  16.970  0.0000E+00  0.1200E+03
  16.980  0.0000E+00  0.1200E+03
  16.990  0.0000E+00  0.1200E+03
  17.000  0.0000E+00  0.1200E+03
  17.010  0.0000E+00  0.1200E+03
  17.020  0.0000E+00  0.1200E+03
  17.030  0.0000E+00  0.1200E+03
  17.040  0.0000E+00  0.1200E+03
  17.050  0.0000E+00  0.1200E+03
  17.060  0.0000E+00  0.1200E+03
  17.070  0.0000E+00  0.1200E+03
  17.080  0.0000E+00  0.1200E+03
  17.090  0.0000E+00  0.1200E+03
  17.100  0.0000E+00  0.1200E+03
  17.110  0.0000E+00  0.1200E+03
  17.120  0.0000E+00  0.1200E+03
  17.130  0.0000E+00  0.1200E+03
  17.140  0.0000E+00  0.1200E+03
  17.150  0.0000E+00  0.1200E+03
  17.160  0.0000E+00  0.1200E+03
  17.170  0.0000E+00  0.1200E+03
  17.180  0.0000E+00  0.1200E+03
  17.190  0.0000E+00  0.1200E+03
  17.200  0.0000E+00  0.1200E+03
  17.210  0.0000E+00  0.1200E+03
  17.220  0.0000E+00  0.1200E+03
  17.230  0.0000E+00  0.1200E+03
  17.240  0.0000E+00  0.1200E+03
  17.250  0.0000E+00  0.1200E+03
  17.260  0.0000E+00  0.1200E+03
  17.270  0.0000E+00  0.1200E+03
  17.280  0.0000E+00  0.1200E+03
  17.290  0.0000E+00  0.1200E+03
  17.300  0.0000E+00  0.1200E+03
  17.310  0.0000E+00  0.1200E+03
  17.320  0.0000E+00  0.1200E+03
  17.330  0.0000E+00  0.1200E+03
  17.340  0.0000E+00  0.1200E+03
  17.350  0.0000E+00  0.1200E+03
  17.360  0.0000E+00  0.1200E+03
  17.370  0.0000E+00  0.1200E+03
  17.380  0.0000E+00  0.1200E+03
  17.390  0.0000E+00  0.1200E+03
  17.400  0.0000E+00  0.1200E+03
  17.410  0.0000E+00  0.1200E+03
  17.420  0.0000E+00  0.1200E+03
  17.430  0.0000E+00  0.1200E+03
  17.440  0.0000E+00  0.1200E+03
  17.450  0.0000E+00  0.1200E+03
  17.460  0.0000E+00  0.1200E+03
  17.470  0.0000E+00  0.1200E+03
  17.480  0.0000E+00  0.1200E+03
  17.490  0.0000E+00  0.1200E+03
  17.500  0.0000E+00  0.1200E+03
  17.510  0.0000E+00  0.1200E+03
  17.520  0.0000E+00  0.1200E+03
  17.530  0.0000E+00  0.1200E+03
  17.540  0.0000E+00  0.1200E+03
  17.550  0.0000E+00  0.1200E+03
  17.560  0.0000E+00  0.1200E+03
  17.570  0.0000E+00  0.1200E+03
  17.580  0.0000E+00  0.1200E+03
  17.590  0.0000E+00  0.1200E+03
  17.600  0.0000E+00  0.1200E+03
  17.610  0.0000E+00  0.1200E+03
  17.620  0.0000E+00  0.1200E+03
  17.630  0.0000E+00  0.1200E+03
  17.640  0.0000E+00  0.1200E+03
  17.650  0.0000E+00  0.1200E+03
  17.660  0.0000E+00  0.1200E+03
  17.670  0.0000E+00  0.1200E+03
  17.680  0.0000E+00  0.1200E+03
  17.690  0.0000E+00  0.1200E+03
  17.700  0.0000E+00  0.1200E+03
  17.710  0.0000E+00  0.1200E+03
  17.720  0.0000E+00  0.1200E+03
  17.730  0.0000E+00  0.1200E+03
  17.740  0.0000E+00  0.1200E+03
  17.750  0.0000E+00  0.1200E+03
  17.760  0.0000E+00  0.1200E+03
  17.770  0.0000E+00  0.1200E+03
  17.780  0.0000E+00  0.1200E+03
  17.790  0.0000E+00  0.1200E+03
  17.800  0.0000E+00  0.1200E+03
  17.810  0.0000E+00  0.1200E+03
  17.820  0.0000E+00  0.1200E+03
  17.830  0.0000E+00  0.1200E+03
  17.840  0.0000E+00  0.1200E+03
  17.850  0.0000E+00  0.1200E+03
  17.860  0.0000E+00  0.1200E+03
  17.870  0.0000E+00  0.1200E+03
  17.880  0.0000E+00  0.1200E+03
  17.890  0.0000E+00  0.1200E+03
  17.900  0.0000E+00  0.1200E+03
  17.910  0.0000E+00  0.1200E+03
  17.920  0.0000E+00  0.1200E+03
  17.930  0.0000E+00  0.1200E+03
  17.940  0.0000E+00  0.1200E+03
  17.950  0.0000E+00  0.1200E+03
  17.960  0.0000E+00  0.1200E+03
  17.970  0.0000E+00  0.1200E+03
  17.980  0.0000E+00  0.1200E+03
  17.990  0.0000E+00  0.1200E+03
  18.000  0.0000E+00  0.1200E+03
  18.010  0.0000E+00  0.1200E+03
  18.020  0.0000E+00  0.1200E+03
  18.030  0.0000E+00  0.1200E+03
  18.040  0.0000E+00  0.1200E+03
  18.050  0.0000E+00  0.1200E+03
  18.060  0.0000E+00  0.1200E+03
  18.070  0.0000E+00  0.1200E+03
  18.080  0.0000E+00  0.1200E+03
  18.090  0.0000E+00  0.1200E+03
  18.100  0.0000E+00  0.1200E+03
  18.110  0.0000E+00  0.1200E+03
  18.120  0.0000E+00  0.1200E+03
  18.130  0.0000E+00  0.1200E+03
  18.140  0.0000E+00  0.1200E+03
  18.150  0.0000E+00  0.1200E+03
  18.160  0.0000E+00  0.1200E+03
  18.170  0.0000E+00  0.1200E+03
  18.180  0.0000E+00  0.1200E+03
  18.190  0.0000E+00  0.1200E+03
  18.200  0.0000E+00  0.1200E+03
  18.210  0.0000E+00  0.1200E+03
  18.220  0.0000E+00  0.1200E+03
  18.230  0.0000E+00  0.1200E+03
  18.240  0.0000E+00  0.1200E+03
  18.250  0.0000E+00  0.1200E+03
  18.260  0.0000E+00  0.1200E+03
  18.270  0.0000E+00  0.1200E+03
  18.280  0.0000E+00  0.1200E+03
  18.290  0.0000E+00  0.1200E+03
  18.300  0.0000E+00  0.1200E+03
  18.310  0.0000E+00  0.1200E+03
  18.320  0.0000E+00  0.1200E+03
  18.330  0.0000E+00  0.1200E+03
  18.340  0.0000E+00  0.1200E+03
  18.350  0.0000E+00  0.1200E+03
  18.360  0.0000E+00  0.1200E+03
  18.370  0.0000E+00  0.1200E+03
  18.380  0.0000E+00  0.1200E+03
  18.390  0.0000E+00  0.1200E+03
  18.400  0.0000E+00  0.1200E+03
  18.410  0.0000E+00  0.1200E+03
  18.420  0.0000E+00  0.1200E+03
  18.430  0.0000E+00  0.1200E+03
  18.440  0.0000E+00  0.1200E+03
  18.450  0.0000E+00  0.1200E+03
  18.460  0.0000E+00  0.1200E+03
  18.470  0.0000E+00  0.1200E+03
  18.480  0.0000E+00  0.1200E+03
  18.490  0.0000E+00  0.1200E+03
  18.500  0.0000E+00  0.1200E+03
  18.510  0.0000E+00  0.1200E+03
  18.520  0.0000E+00  0.1200E+03
  18.530  0.0000E+00  0.1200E+03
  18.540  0.0000E+00  0.1200E+03
  18.550  0.0000E+00  0.1200E+03
  18.560  0.0000E+00  0.1200E+03
  18.570  0.0000E+00  0.1200E+03
  18.580  0.0000E+00  0.1200E+03
  18.590  0.0000E+00  0.1200E+03
  18.600  0.0000E+00  0.1200E+03
  18.610  0.0000E+00  0.1200E+03
  18.620  0.0000E+00  0.1200E+03
  18.630  0.0000E+00  0.1200E+03
  18.640  0.0000E+00  0.1200E+03
  18.650  0.0000E+00  0.1200E+03
  18.660  0.0000E+00  0.1200E+03
  18.670  0.0000E+00  0.1200E+03
  18.680  0.0000E+00  0.1200E+03
  18.690  0.0000E+00  0.1200E+03
  18.700  0.0000E+00  0.1200E+03
  18.710  0.0000E+00  0.1200E+03
  18.720  0.0000E+00  0.1200E+03
  18.730  0.0000E+00  0.1200E+03
  18.740  0.0000E+00  0.1200E+03
  18.750  0.0000E+00  0.1200E+03
  18.760  0.0000E+00  0.1200E+03
  18.770  0.0000E+00  0.1200E+03
  18.780  0.0000E+00  0.1200E+03
  18.790  0.0000E+00  0.1200E+03
  18.800  0.0000E+00  0.1200E+03
  18.810  0.0000E+00  0.1200E+03
  18.820  0.0000E+00  0.1200E+03
  18.830  0.0000E+00  0.1200E+03
  18.840  0.0000E+00  0.1200E+03
  18.850  0.0000E+00  0.1200E+03
  18.860  0.0000E+00  0.1200E+03
  18.870  0.0000E+00  0.1200E+03
  18.880  0.0000E+00  0.1200E+03
  18.890  0.0000E+00  0.1200E+03
  18.900  0.0000E+00  0.1200E+03
  18.910  0.0000E+00  0.1200E+03
  18.920  0.0000E+00  0.1200E+03
  18.930  0.0000E+00  0.1200E+03
  18.940  0.0000E+00  0.1200E+03
  18.950  0.0000E+00  0.1200E+03
  18.960  0.0000E+00  0.1200E+03
  18.970  0.0000E+00  0.1200E+03
  18.980  0.0000E+00  0.1200E+03
  18.990  0.0000E+00  0.1200E+03
  19.000  0.0000E+00  0.1200E+03
  19.010  0.0000E+00  0.1200E+03
  19.020  0.0000E+00  0.1200E+03
  19.030  0.0000E+00  0.1200E+03
  19.040  0.0000E+00  0.1200E+03
  19.050  0.0000E+00  0.1200E+03
  19.060  0.0000E+00  0.1200E+03
  19.070  0.0000E+00  0.1200E+03
  19.080  0.0000E+00  0.1200E+03
  19.090  0.0000E+00  0.1200E+03
  19.100  0.0000E+00  0.1200E+03
  19.110  0.0000E+00  0.1200E+03
  19.120  0.0000E+00  0.1200E+03
  19.130  0.0000E+00  0.1200E+03
  19.140  0.0000E+00  0.1200E+03
  19.150  0.0000E+00  0.1200E+03
  19.160  0.0000E+00  0.1200E+03
  19.170  0.0000E+00  0.1200E+03
  19.180  0.0000E+00  0.1200E+03
  19.190  0.0000E+00  0.1200E+03
  19.200  0.0000E+00  0.1200E+03
  19.210  0.0000E+00  0.1200E+03
  19.220  0.0000E+00  0.1200E+03
  19.230  0.0000E+00  0.1200E+03
  19.240  0.0000E+00  0.1200E+03
  19.250  0.0000E+00  0.1200E+03
  19.260  0.0000E+00  0.1200E+03
  19.270  0.0000E+00  0.1200E+03
  19.280  0.0000E+00  0.1200E+03
  19.290  0.0000E+00  0.1200E+03
  19.300  0.0000E+00  0.1200E+03
  19.310  0.0000E+00  0.1200E+03
  19.320  0.0000E+00  0.1200E+03
  19.330  0.0000E+00  0.1200E+03
  19.340  0.0000E+00  0.1200E+03
  19.350  0.0000E+00  0.1200E+03
  19.360  0.0000E+00  0.1200E+03
  19.370  0.0000E+00  0.1200E+03
  19.380  0.0000E+00  0.1200E+03
  19.390  0.0000E+00  0.1200E+03
  19.400  0.0000E+00  0.1200E+03
  19.410  0.0000E+00  0.1200E+03
  19.420  0.0000E+00  0.1200E+03
  19.430  0.0000E+00  0.1200E+03
  19.440  0.0000E+00  0.1200E+03
  19.450  0.0000E+00  0.1200E+03
  19.460  0.0000E+00  0.1200E+03
  19.470  0.0000E+00  0.1200E+03
  19.480  0.0000E+00  0.1200E+03
  19.490  0.0000E+00  0.1200E+03
  19.500  0.0000E+00  0.1200E+03
  19.510  0.0000E+00  0.1200E+03
  19.520  0.0000E+00  0.1200E+03
  19.530  0.0000E+00  0.1200E+03
  19.540  0.0000E+00  0.1200E+03
  19.550  0.0000E+00  0.1200E+03
  19.560  0.0000E+00  0.1200E+03
  19.570  0.0000E+00  0.1200E+03
  19.580  0.0000E+00  0.1200E+03
  19.590  0.0000E+00  0.1200E+03
  19.600  0.0000E+00  0.1200E+03
  19.610  0.0000E+00  0.1200E+03
  19.620  0.0000E+00  0.1200E+03
  19.630  0.0000E+00  0.1200E+03
  19.640  0.0000E+00  0.1200E+03
  19.650  0.0000E+00  0.1200E+03
  19.660  0.0000E+00  0.1200E+03
  19.670  0.0000E+00  0.1200E+03
  19.680  0.0000E+00  0.1200E+03
  19.690  0.0000E+00  0.1200E+03
  19.700  0.0000E+00  0.1200E+03
  19.710  0.0000E+00  0.1200E+03
  19.720  0.0000E+00  0.1200E+03
  19.730  0.0000E+00  0.1200E+03
  19.740  0.0000E+00  0.1200E+03
  19.750  0.0000E+00  0.1200E+03
  19.760  0.0000E+00  0.1200E+03
  19.770  0.0000E+00  0.1200E+03
  19.780  0.0000E+00  0.1200E+03
  19.790  0.0000E+00  0.1200E+03
  19.800  0.0000E+00  0.1200E+03
  19.810  0.0000E+00  0.1200E+03
  19.820  0.0000E+00  0.1200E+03
  19.830  0.0000E+00  0.1200E+03
  19.840  0.0000E+00  0.1200E+03
  19.850  0.0000E+00  0.1200E+03
  19.860  0.0000E+00  0.1200E+03
  19.870  0.0000E+00  0.1200E+03
  19.880  0.0000E+00  0.1200E+03
  19.890  0.0000E+00  0.1200E+03
  19.900  0.0000E+00  0.1200E+03
  19.910  0.0000E+00  0.1200E+03
  19.920  0.0000E+00  0.1200E+03
  19.930  0.0000E+00  0.1200E+03
  19.940  0.0000E+00  0.1200E+03
  19.950  0.0000E+00  0.1200E+03
  19.960  0.0000E+00  0.1200E+03
  19.970  0.0000E+00  0.1200E+03
  19.980  0.0000E+00  0.1200E+03
  19.990  0.0000E+00  0.1200E+03
  20.000  0.0000E+00  0.1200E+03
  20.010  0.0000E+00  0.1200E+03
  20.020  0.0000E+00  0.1200E+03
  20.030  0.0000E+00  0.1200E+03
  20.040  0.0000E+00  0.1200E+03
  20.050  0.0000E+00  0.1200E+03
  20.060  0.0000E+00  0.1200E+03
  20.070  0.0000E+00  0.1200E+03
  20.080  0.0000E+00  0.1200E+03
  20.090  0.0000E+00  0.1200E+03
  20.100  0.0000E+00  0.1200E+03
  20.110  0.0000E+00  0.1200E+03
  20.120  0.0000E+00  0.1200E+03
  20.130  0.0000E+00  0.1200E+03
  20.140  0.0000E+00  0.1200E+03
  20.150  0.0000E+00  0.1200E+03
  20.160  0.0000E+00  0.1200E+03
  20.170  0.0000E+00  0.1200E+03
  20.180  0.0000E+00  0.1200E+03
  20.190  0.0000E+00  0.1200E+03
  20.200  0.0000E+00  0.1200E+03
  20.210  0.0000E+00  0.1200E+03
  20.220  0.0000E+00  0.1200E+03
  20.230  0.0000E+00  0.1200E+03
  20.240  0.0000E+00  0.1200E+03
  20.250  0.0000E+00  0.1200E+03
  20.260  0.0000E+00  0.1200E+03
  20.270  0.0000E+00  0.1200E+03
  20.280  0.0000E+00  0.1200E+03
  20.290  0.0000E+00  0.1200E+03
  20.300  0.0000E+00  0.1200E+03
  20.310  0.0000E+00  0.1200E+03
  20.320  0.0000E+00  0.1200E+03
  20.330  0.0000E+00  0.1200E+03
  20.340  0.0000E+00  0.1200E+03
  20.350  0.0000E+00  0.1200E+03
  20.360  0.0000E+00  0.1200E+03
  20.370  0.0000E+00  0.1200E+03
  20.380  0.0000E+00  0.1200E+03
  20.390  0.0000E+00  0.1200E+03
  20.400  0.0000E+00  0.1200E+03
  20.410  0.0000E+00  0.1200E+03
  20.420  0.0000E+00  0.1200E+03
  20.430  0.0000E+00  0.1200E+03
  20.440  0.0000E+00  0.1200E+03
  20.450  0.0000E+00  0.1200E+03
  20.460  0.0000E+00  0.1200E+03
  20.470  0.0000E+00  0.1200E+03
  20.480  0.0000E+00  0.1200E+03
  20.490  0.0000E+00  0.1200E+03
  20.500  0.0000E+00  0.1200E+03
  20.510  0.0000E+00  0.1200E+03
  20.520  0.0000E+00  0.1200E+03
  20.530  0.0000E+00  0.1200E+03
  20.540  0.0000E+00  0.1200E+03
  20.550  0.0000E+00  0.1200E+03
  20.560  0.0000E+00  0.1200E+03
  20.570  0.0000E+00  0.1200E+03
  20.580  0.0000E+00  0.1200E+03
  20.590  0.0000E+00  0.1200E+03
  20.600  0.0000E+00  0.1200E+03
  20.610  0.0000E+00  0.1200E+03
  20.620  0.0000E+00  0.1200E+03
  20.630  0.0000E+00  0.1200E+03
  20.640  0.0000E+00  0.1200E+03
  20.650  0.0000E+00  0.1200E+03
  20.660  0.0000E+00  0.1200E+03
  20.670  0.0000E+00  0.1200E+03
  20.680  0.0000E+00  0.1200E+03
  20.690  0.0000E+00  0.1200E+03
  20.700  0.0000E+00  0.1200E+03
  20.710  0.0000E+00  0.1200E+03
  20.720  0.0000E+00  0.1200E+03
  20.730  0.0000E+00  0.1200E+03
  20.740  0.0000E+00  0.1200E+03
  20.750  0.0000E+00  0.1200E+03
  20.760  0.0000E+00  0.1200E+03
  20.770  0.0000E+00  0.1200E+03
  20.780  0.0000E+00  0.1200E+03
  20.790  0.0000E+00  0.1200E+03
  20.800  0.0000E+00  0.1200E+03
  20.810  0.0000E+00  0.1200E+03
  20.820  0.0000E+00  0.1200E+03
  20.830  0.0000E+00  0.1200E+03
  20.840  0.0000E+00  0.1200E+03
  20.850  0.0000E+00  0.1200E+03
  20.860  0.0000E+00  0.1200E+03
  20.870  0.0000E+00  0.1200E+03
  20.880  0.0000E+00  0.1200E+03
  20.890  0.0000E+00  0.1200E+03
  20.900  0.0000E+00  0.1200E+03
  20.910  0.0000E+00  0.1200E+03
  20.920  0.0000E+00  0.1200E+03
  20.930  0.0000E+00  0.1200E+03
  20.940  0.0000E+00  0.1200E+03
  20.950  0.0000E+00  0.1200E+03
  20.960  0.0000E+00  0.1200E+03
  20.970  0.0000E+00  0.1200E+03
  20.980  0.0000E+00  0.1200E+03
  20.990  0.0000E+00  0.1200E+03
  21.000  0.0000E+00  0.1200E+03
  21.010  0.0000E+00  0.1200E+03
  21.020  0.0000E+00  0.1200E+03
  21.030  0.0000E+00  0.1200E+03
  21.040  0.0000E+00  0.1200E+03
  21.050  0.0000E+00  0.1200E+03
  21.060  0.0000E+00  0.1200E+03
  21.070  0.0000E+00  0.1200E+03
  21.080  0.0000E+00  0.1200E+03
  21.090  0.0000E+00  0.1200E+03
  21.100  0.0000E+00  0.1200E+03
  21.110  0.0000E+00  0.1200E+03
  21.120  0.0000E+00  0.1200E+03
  21.130  0.0000E+00  0.1200E+03
  21.140  0.0000E+00  0.1200E+03
  21.150  0.0000E+00  0.1200E+03
  21.160  0.0000E+00  0.1200E+03
  21.170  0.0000E+00  0.1200E+03
  21.180  0.0000E+00  0.1200E+03
  21.190  0.0000E+00  0.1200E+03
  21.200  0.0000E+00  0.1200E+03
  21.210  0.0000E+00  0.1200E+03
  21.220  0.0000E+00  0.1200E+03
  21.230  0.0000E+00  0.1200E+03
  21.240  0.0000E+00  0.1200E+03
  21.250  0.0000E+00  0.1200E+03
  21.260  0.0000E+00  0.1200E+03
  21.270  0.0000E+00  0.1200E+03
  21.280  0.0000E+00  0.1200E+03
  21.290  0.0000E+00  0.1200E+03
  21.300  0.0000E+00  0.1200E+03
  21.310  0.0000E+00  0.1200E+03
  21.320  0.0000E+00  0.1200E+03
  21.330  0.0000E+00  0.1200E+03
  21.340  0.0000E+00  0.1200E+03
  21.350  0.0000E+00  0.1200E+03
  21.360  0.0000E+00  0.1200E+03
  21.370  0.0000E+00  0.1200E+03
  21.380  0.0000E+00  0.1200E+03
  21.390  0.0000E+00  0.1200E+03
  21.400  0.0000E+00  0.1200E+03
  21.410  0.0000E+00  0.1200E+03
  21.420  0.0000E+00  0.1200E+03
  21.430  0.0000E+00  0.1200E+03
  21.440  0.0000E+00  0.1200E+03
  21.450  0.0000E+00  0.1200E+03
  21.460  0.0000E+00  0.1200E+03
  21.470  0.0000E+00  0.1200E+03
  21.480  0.0000E+00  0.1200E+03
  21.490  0.0000E+00  0.1200E+03
  21.500  0.0000E+00  0.1200E+03
  21.510  0.0000E+00  0.1200E+03
  21.520  0.0000E+00  0.1200E+03
  21.530  0.0000E+00  0.1200E+03
  21.540  0.0000E+00  0.1200E+03
  21.550  0.0000E+00  0.1200E+03
  21.560  0.0000E+00  0.1200E+03
  21.570  0.0000E+00  0.1200E+03
  21.580  0.0000E+00  0.1200E+03
  21.590  0.0000E+00  0.1200E+03
  21.600  0.0000E+00  0.1200E+03
  21.610  0.0000E+00  0.1200E+03
  21.620  0.0000E+00  0.1200E+03
  21.630  0.0000E+00  0.1200E+03
  21.640  0.0000E+00  0.1200E+03
  21.650  0.0000E+00  0.1200E+03
  21.660  0.0000E+00  0.1200E+03
  21.670  0.0000E+00  0.1200E+03
  21.680  0.0000E+00  0.1200E+03
  21.690  0.0000E+00  0.1200E+03
  21.700  0.0000E+00  0.1200E+03
  21.710  0.0000E+00  0.1200E+03
  21.720  0.0000E+00  0.1200E+03
  21.730  0.0000E+00  0.1200E+03
  21.740  0.0000E+00  0.1200E+03
  21.750  0.0000E+00  0.1200E+03
  21.760  0.0000E+00  0.1200E+03
  21.770  0.0000E+00  0.1200E+03
  21.780  0.0000E+00  0.1200E+03
  21.790  0.0000E+00  0.1200E+03
  21.800  0.0000E+00  0.1200E+03
  21.810  0.0000E+00  0.1200E+03
  21.820  0.0000E+00  0.1200E+03
  21.830  0.0000E+00  0.1200E+03
  21.840  0.0000E+00  0.1200E+03
  21.850  0.0000E+00  0.1200E+03
  21.860  0.0000E+00  0.1200E+03
  21.870  0.0000E+00  0.1200E+03
  21.880  0.0000E+00  0.1200E+03
  21.890  0.0000E+00  0.1200E+03
  21.900  0.0000E+00  0.1200E+03
  21.910  0.0000E+00  0.1200E+03
  21.920  0.0000E+00  0.1200E+03
  21.930  0.0000E+00  0.1200E+03
  21.940  0.0000E+00  0.1200E+03
  21.950  0.0000E+00  0.1200E+03
  21.960  0.0000E+00  0.1200E+03
  21.970  0.0000E+00  0.1200E+03
  21.980  0.0000E+00  0.1200E+03
  21.990  0.0000E+00  0.1200E+03
  22.000  0.0000E+00  0.1200E+03
  22.010  0.0000E+00  0.1200E+03
  22.020  0.0000E+00  0.1200E+03
  22.030  0.0000E+00  0.1200E+03
  22.040  0.0000E+00  0.1200E+03
  22.050  0.0000E+00  0.1200E+03
  22.060  0.0000E+00  0.1200E+03
  22.070  0.0000E+00  0.1200E+03
  22.080  0.0000E+00  0.1200E+03
  22.090  0.0000E+00  0.1200E+03
  22.100  0.0000E+00  0.1200E+03
  22.110  0.0000E+00  0.1200E+03
  22.120  0.0000E+00  0.1200E+03
  22.130  0.0000E+00  0.1200E+03
  22.140  0.0000E+00  0.1200E+03
  22.150  0.0000E+00  0.1200E+03
  22.160  0.0000E+00  0.1200E+03
  22.170  0.0000E+00  0.1200E+03
  22.180  0.0000E+00  0.1200E+03
  22.190  0.0000E+00  0.1200E+03
  22.200  0.0000E+00  0.1200E+03
  22.210  0.0000E+00  0.1200E+03
  22.220  0.0000E+00  0.1200E+03
  22.230  0.0000E+00  0.1200E+03
  22.240  0.0000E+00  0.1200E+03
  22.250  0.0000E+00  0.1200E+03
  22.260  0.0000E+00  0.1200E+03
  22.270  0.0000E+00  0.1200E+03
  22.280  0.0000E+00  0.1200E+03
  22.290  0.0000E+00  0.1200E+03
  22.300  0.0000E+00  0.1200E+03
  22.310  0.0000E+00  0.1200E+03
  22.320  0.0000E+00  0.1200E+03
  22.330  0.0000E+00  0.1200E+03
  22.340  0.0000E+00  0.1200E+03
  22.350  0.0000E+00  0.1200E+03
  22.360  0.0000E+00  0.1200E+03
  22.370  0.0000E+00  0.1200E+03
  22.380  0.0000E+00  0.1200E+03
  22.390  0.0000E+00  0.1200E+03
  22.400  0.0000E+00  0.1200E+03
  22.410  0.0000E+00  0.1200E+03
  22.420  0.0000E+00  0.1200E+03
  22.430  0.0000E+00  0.1200E+03
  22.440  0.0000E+00  0.1200E+03
  22.450  0.0000E+00  0.1200E+03
  22.460  0.0000E+00  0.1200E+03
  22.470  0.0000E+00  0.1200E+03
  22.480  0.0000E+00  0.1200E+03
  22.490  0.0000E+00  0.1200E+03
  22.500  0.0000E+00  0.1200E+03
  22.510  0.0000E+00  0.1200E+03
  22.520  0.0000E+00  0.1200E+03
  22.530  0.0000E+00  0.1200E+03
  22.540  0.0000E+00  0.1200E+03
  22.550  0.0000E+00  0.1200E+03
  22.560  0.0000E+00  0.1200E+03
  22.570  0.0000E+00  0.1200E+03
  22.580  0.0000E+00  0.1200E+03
  22.590  0.0000E+00  0.1200E+03
  22.600  0.0000E+00  0.1200E+03
  22.610  0.0000E+00  0.1200E+03
  22.620  0.0000E+00  0.1200E+03
  22.630  0.0000E+00  0.1200E+03
  22.640  0.0000E+00  0.1200E+03
  22.650  0.0000E+00  0.1200E+03
  22.660  0.0000E+00  0.1200E+03
  22.670  0.0000E+00  0.1200E+03
  22.680  0.0000E+00  0.1200E+03
  22.690  0.0000E+00  0.1200E+03
  22.700  0.0000E+00  0.1200E+03
  22.710  0.0000E+00  0.1200E+03
  22.720  0.0000E+00  0.1200E+03
  22.730  0.0000E+00  0.1200E+03
  22.740  0.0000E+00  0.1200E+03
  22.750  0.0000E+00  0.1200E+03
  22.760  0.0000E+00  0.1200E+03
  22.770  0.0000E+00  0.1200E+03
  22.780  0.0000E+00  0.1200E+03
  22.790  0.0000E+00  0.1200E+03
  22.800  0.0000E+00  0.1200E+03
  22.810  0.0000E+00  0.1200E+03
  22.820  0.0000E+00  0.1200E+03
  22.830  0.0000E+00  0.1200E+03
  22.840  0.0000E+00  0.1200E+03
  22.850  0.0000E+00  0.1200E+03
  22.860  0.0000E+00  0.1200E+03
  22.870  0.0000E+00  0.1200E+03
  22.880  0.0000E+00  0.1200E+03
  22.890  0.0000E+00  0.1200E+03
  22.900  0.0000E+00  0.1200E+03
  22.910  0.0000E+00  0.1200E+03
  22.920  0.0000E+00  0.1200E+03
  22.930  0.0000E+00  0.1200E+03
  22.940  0.0000E+00  0.1200E+03
  22.950  0.0000E+00  0.1200E+03
  22.960  0.0000E+00  0.1200E+03
  22.970  0.0000E+00  0.1200E+03
  22.980  0.0000E+00  0.1200E+03
  22.990  0.0000E+00  0.1200E+03
  23.000  0.0000E+00  0.1200E+03
  23.010  0.0000E+00  0.1200E+03
  23.020  0.0000E+00  0.1200E+03
  23.030  0.0000E+00  0.1200E+03
  23.040  0.0000E+00  0.1200E+03
  23.050  0.0000E+00  0.1200E+03
  23.060  0.0000E+00  0.1200E+03
  23.070  0.0000E+00  0.1200E+03
  23.080  0.0000E+00  0.1200E+03
  23.090  0.0000E+00  0.1200E+03
  23.100  0.0000E+00  0.1200E+03
  23.110  0.0000E+00  0.1200E+03
  23.120  0.0000E+00  0.1200E+03
  23.130  0.0000E+00  0.1200E+03
  23.140  0.0000E+00  0.1200E+03
  23.150  0.0000E+00  0.1200E+03
  23.160  0.0000E+00  0.1200E+03
  23.170  0.0000E+00  0.1200E+03
  23.180  0.0000E+00  0.1200E+03
  23.190  0.0000E+00  0.1200E+03
  23.200  0.0000E+00  0.1200E+03
  23.210  0.0000E+00  0.1200E+03
  23.220  0.0000E+00  0.1200E+03
  23.230  0.0000E+00  0.1200E+03
  23.240  0.0000E+00  0.1200E+03
  23.250  0.0000E+00  0.1200E+03
  23.260  0.0000E+00  0.1200E+03
  23.270  0.0000E+00  0.1200E+03
  23.280  0.0000E+00  0.1200E+03
  23.290  0.0000E+00  0.1200E+03
  23.300  0.0000E+00  0.1200E+03
  23.310  0.0000E+00  0.1200E+03
  23.320  0.0000E+00  0.1200E+03
  23.330  0.0000E+00  0.1200E+03
  23.340  0.0000E+00  0.1200E+03
  23.350  0.0000E+00  0.1200E+03
  23.360  0.0000E+00  0.1200E+03
  23.370  0.0000E+00  0.1200E+03
  23.380  0.0000E+00  0.1200E+03
  23.390  0.0000E+00  0.1200E+03
  23.400  0.0000E+00  0.1200E+03
  23.410  0.0000E+00  0.1200E+03
  23.420  0.0000E+00  0.1200E+03
  23.430  0.0000E+00  0.1200E+03
  23.440  0.0000E+00  0.1200E+03
  23.450  0.0000E+00  0.1200E+03
  23.460  0.0000E+00  0.1200E+03
  23.470  0.0000E+00  0.1200E+03
  23.480  0.0000E+00  0.1200E+03
  23.490  0.0000E+00  0.1200E+03
  23.500  0.0000E+00  0.1200E+03
  23.510  0.0000E+00  0.1200E+03
  23.520  0.0000E+00  0.1200E+03
  23.530  0.0000E+00  0.1200E+03
  23.540  0.0000E+00  0.1200E+03
  23.550  0.0000E+00  0.1200E+03
  23.560  0.0000E+00  0.1200E+03
  23.570  0.0000E+00  0.1200E+03
  23.580  0.0000E+00  0.1200E+03
  23.590  0.0000E+00  0.1200E+03
  23.600  0.0000E+00  0.1200E+03
  23.610  0.0000E+00  0.1200E+03
  23.620  0.0000E+00  0.1200E+03
  23.630  0.0000E+00  0.1200E+03
  23.640  0.0000E+00  0.1200E+03
  23.650  0.0000E+00  0.1200E+03
  23.660  0.0000E+00  0.1200E+03
  23.670  0.0000E+00  0.1200E+03
  23.680  0.0000E+00  0.1200E+03
  23.690  0.0000E+00  0.1200E+03
  23.700  0.0000E+00  0.1200E+03
  23.710  0.0000E+00  0.1200E+03
  23.720  0.0000E+00  0.1200E+03
  23.730  0.0000E+00  0.1200E+03
  23.740  0.0000E+00  0.1200E+03
  23.750  0.0000E+00  0.1200E+03
  23.760  0.0000E+00  0.1200E+03
  23.770  0.0000E+00  0.1200E+03
  23.780  0.0000E+00  0.1200E+03
  23.790  0.0000E+00  0.1200E+03
  23.800  0.0000E+00  0.1200E+03
  23.810  0.0000E+00  0.1200E+03
  23.820  0.0000E+00  0.1200E+03
  23.830  0.0000E+00  0.1200E+03
  23.840  0.0000E+00  0.1200E+03
  23.850  0.0000E+00  0.1200E+03
  23.860  0.0000E+00  0.1200E+03
  23.870  0.0000E+00  0.1200E+03
  23.880  0.0000E+00  0.1200E+03
  23.890  0.0000E+00  0.1200E+03
  23.900  0.0000E+00  0.1200E+03
  23.910  0.0000E+00  0.1200E+03
  23.920  0.0000E+00  0.1200E+03
  23.930  0.0000E+00  0.1200E+03
  23.940  0.0000E+00  0.1200E+03
  23.950  0.0000E+00  0.1200E+03
  23.960  0.0000E+00  0.1200E+03
  23.970  0.0000E+00  0.1200E+03
  23.980  0.0000E+00  0.1200E+03
  23.990  0.0000E+00  0.1200E+03
  24.000  0.0000E+00  0.1200E+03
  24.010  0.0000E+00  0.1200E+03
  24.020  0.0000E+00  0.1200E+03
  24.030  0.0000E+00  0.1200E+03
  24.040  0.0000E+00  0.1200E+03
  24.050  0.0000E+00  0.1200E+03
  24.060  0.0000E+00  0.1200E+03
  24.070  0.0000E+00  0.1200E+03
  24.080  0.0000E+00  0.1200E+03
  24.090  0.0000E+00  0.1200E+03
  24.100  0.0000E+00  0.1200E+03
  24.110  0.0000E+00  0.1200E+03
  24.120  0.0000E+00  0.1200E+03
  24.130  0.0000E+00  0.1200E+03
  24.140  0.0000E+00  0.1200E+03
  24.150  0.0000E+00  0.1200E+03
  24.160  0.0000E+00  0.1200E+03
  24.170  0.0000E+00  0.1200E+03
  24.180  0.0000E+00  0.1200E+03
  24.190  0.0000E+00  0.1200E+03
  24.200  0.0000E+00  0.1200E+03
  24.210  0.0000E+00  0.1200E+03
  24.220  0.0000E+00  0.1200E+03
  24.230  0.0000E+00  0.1200E+03
  24.240  0.0000E+00  0.1200E+03
  24.250  0.0000E+00  0.1200E+03
  24.260  0.0000E+00  0.1200E+03
  24.270  0.0000E+00  0.1200E+03
  24.280  0.0000E+00  0.1200E+03
  24.290  0.0000E+00  0.1200E+03
  24.300  0.0000E+00  0.1200E+03
  24.310  0.0000E+00  0.1200E+03
  24.320  0.0000E+00  0.1200E+03
  24.330  0.0000E+00  0.1200E+03
  24.340  0.0000E+00  0.1200E+03
  24.350  0.0000E+00  0.1200E+03
  24.360  0.0000E+00  0.1200E+03
  24.370  0.0000E+00  0.1200E+03
  24.380  0.0000E+00  0.1200E+03
  24.390  0.0000E+00  0.1200E+03
  24.400  0.0000E+00  0.1200E+03
  24.410  0.0000E+00  0.1200E+03
  24.420  0.0000E+00  0.1200E+03
  24.430  0.0000E+00  0.1200E+03
  24.440  0.0000E+00  0.1200E+03
  24.450  0.0000E+00  0.1200E+03
  24.460  0.0000E+00  0.1200E+03
  24.470  0.0000E+00  0.1200E+03
  24.480  0.0000E+00  0.1200E+03
  24.490  0.0000E+00  0.1200E+03
  24.500  0.0000E+00  0.1200E+03
  24.510  0.0000E+00  0.1200E+03
  24.520  0.0000E+00  0.1200E+03
  24.530  0.0000E+00  0.1200E+03
  24.540  0.0000E+00  0.1200E+03
  24.550  0.0000E+00  0.1200E+03
  24.560  0.0000E+00  0.1200E+03
  24.570  0.0000E+00  0.1200E+03
  24.580  0.0000E+00  0.1200E+03
  24.590  0.0000E+00  0.1200E+03
  24.600  0.0000E+00  0.1200E+03
  24.610  0.0000E+00  0.1200E+03
  24.620  0.0000E+00  0.1200E+03
  24.630  0.0000E+00  0.1200E+03
  24.640  0.0000E+00  0.1200E+03
  24.650  0.0000E+00  0.1200E+03
  24.660  0.0000E+00  0.1200E+03
  24.670  0.0000E+00  0.1200E+03
  24.680  0.0000E+00  0.1200E+03
  24.690  0.0000E+00  0.1200E+03
  24.700  0.0000E+00  0.1200E+03
  24.710  0.0000E+00  0.1200E+03
  24.720  0.0000E+00  0.1200E+03
  24.730  0.0000E+00  0.1200E+03
  24.740  0.0000E+00  0.1200E+03
  24.750  0.0000E+00  0.1200E+03
  24.760  0.0000E+00  0.1200E+03
  24.770  0.0000E+00  0.1200E+03
  24.780  0.0000E+00  0.1200E+03
  24.790  0.0000E+00  0.1200E+03
  24.800  0.0000E+00  0.1200E+03
  24.810  0.0000E+00  0.1200E+03
  24.820  0.0000E+00  0.1200E+03
  24.830  0.0000E+00  0.1200E+03
  24.840  0.0000E+00  0.1200E+03
  24.850  0.0000E+00  0.1200E+03
  24.860  0.0000E+00  0.1200E+03
  24.870  0.0000E+00  0.1200E+03
  24.880  0.0000E+00  0.1200E+03
  24.890  0.0000E+00  0.1200E+03
  24.900  0.0000E+00  0.1200E+03
  24.910  0.0000E+00  0.1200E+03
  24.920  0.0000E+00  0.1200E+03
  24.930  0.0000E+00  0.1200E+03
  24.940  0.0000E+00  0.1200E+03
  24.950  0.0000E+00  0.1200E+03
  24.960  0.0000E+00  0.1200E+03
  24.970  0.0000E+00  0.1200E+03
  24.980  0.0000E+00  0.1200E+03
  24.990  0.0000E+00  0.1200E+03
  25.000  0.0000E+00  0.1200E+03
